Wavenumber,Intensity
650.4205,0.157155
652.2841,0.154341
654.1478,0.153058
656.0115,0.150812
657.8751,0.149247
659.7388,0.148340
661.6025,0.148888
663.4661,0.150349
665.3298,0.148354
667.1935,0.148466
669.0571,0.152159
670.9208,0.148033
672.7845,0.144979
674.6481,0.144577
676.5118,0.143604
678.3755,0.141440
680.2392,0.139530
682.1028,0.138631
683.9665,0.137528
685.8302,0.135959
687.6938,0.134909
689.5575,0.134873
691.4212,0.134521
693.2848,0.133065
695.1485,0.131389
697.0122,0.131133
698.8758,0.131233
700.7395,0.130047
702.6032,0.128459
704.4669,0.127176
706.3305,0.125520
708.1942,0.123851
710.0579,0.122177
711.9215,0.120234
713.7852,0.119118
715.6489,0.118633
717.5125,0.117493
719.3762,0.116488
721.2399,0.114897
723.1035,0.112685
724.9672,0.111253
726.8309,0.110518
728.6945,0.109587
730.5582,0.109015
732.4219,0.108740
734.2856,0.107968
736.1492,0.106878
738.0129,0.106632
739.8766,0.106619
741.7402,0.105814
743.6039,0.104585
745.4676,0.103945
747.3312,0.103406
749.1949,0.102335
751.0586,0.100910
752.9222,0.100339
754.7859,0.100068
756.6496,0.099419
758.5132,0.098403
760.3769,0.097560
762.2406,0.097174
764.1043,0.097352
765.9679,0.096983
767.8316,0.096202
769.6953,0.095377
771.5589,0.094177
773.4226,0.093264
775.2863,0.092672
777.1499,0.091827
779.0136,0.091010
780.8773,0.090288
782.7409,0.089576
784.6046,0.088555
786.4683,0.087365
788.3320,0.086291
790.1956,0.085758
792.0593,0.085277
793.9230,0.084468
795.7866,0.083995
797.6503,0.083811
799.5140,0.083447
801.3776,0.083202
803.2413,0.083152
805.1050,0.083030
806.9686,0.082495
808.8323,0.081931
810.6960,0.081414
812.5596,0.081184
814.4233,0.081388
816.2870,0.081254
818.1507,0.080350
820.0143,0.079354
821.8780,0.078031
823.7417,0.076530
825.6053,0.075238
827.4690,0.074051
829.3327,0.072786
831.1963,0.071484
833.0600,0.070359
834.9237,0.069625
836.7873,0.069073
838.6510,0.068166
840.5147,0.066832
842.3784,0.065837
844.2420,0.065114
846.1057,0.064553
847.9694,0.064241
849.8330,0.063747
851.6967,0.063168
853.5604,0.062861
855.4240,0.062766
857.2877,0.062916
859.1514,0.063017
861.0150,0.063156
862.8787,0.063240
864.7424,0.063330
866.6060,0.063637
868.4697,0.063973
870.3334,0.064089
872.1971,0.064176
874.0607,0.064216
875.9244,0.063999
877.7881,0.063574
879.6517,0.063086
881.5154,0.062532
883.3791,0.061937
885.2427,0.061554
887.1064,0.061504
888.9701,0.061491
890.8337,0.061439
892.6974,0.061528
894.5611,0.061540
896.4247,0.061311
898.2884,0.060796
900.1521,0.060085
902.0158,0.059509
903.8794,0.059044
905.7431,0.058611
907.6068,0.058280
909.4704,0.058120
911.3341,0.058204
913.1978,0.058457
915.0614,0.058701
916.9251,0.058860
918.7888,0.058939
920.6524,0.059084
922.5161,0.059107
924.3798,0.059080
926.2435,0.059160
928.1071,0.059368
929.9708,0.059632
931.8345,0.059875
933.6981,0.060221
935.5618,0.060676
937.4255,0.061385
939.2891,0.062540
941.1528,0.063709
943.0165,0.065049
944.8801,0.066373
946.7438,0.067219
948.6075,0.067681
950.4711,0.068140
952.3348,0.068771
954.1985,0.069635
956.0622,0.070835
957.9258,0.072540
959.7895,0.074695
961.6532,0.077182
963.5168,0.079685
965.3805,0.081749
967.2442,0.083106
969.1078,0.083811
970.9715,0.084000
972.8352,0.084134
974.6988,0.084620
976.5625,0.085569
978.4262,0.087046
980.2899,0.088868
982.1535,0.090896
984.0172,0.093051
985.8809,0.095131
987.7445,0.097309
989.6082,0.099660
991.4719,0.102047
993.3355,0.104381
995.1992,0.106650
997.0629,0.108884
998.9265,0.110998
1000.7902,0.112961
1002.6539,0.114878
1004.5175,0.116957
1006.3812,0.119415
1008.2449,0.122428
1010.1086,0.125769
1011.9722,0.129116
1013.8359,0.132445
1015.6996,0.135516
1017.5632,0.138051
1019.4269,0.139990
1021.2906,0.141428
1023.1542,0.142376
1025.0179,0.143168
1026.8816,0.143986
1028.7452,0.144473
1030.6089,0.144729
1032.4726,0.144812
1034.3362,0.144391
1036.1999,0.143485
1038.0636,0.142392
1039.9273,0.141174
1041.7909,0.140022
1043.6546,0.139139
1045.5183,0.138471
1047.3819,0.137919
1049.2456,0.137574
1051.1093,0.137276
1052.9729,0.137012
1054.8366,0.136862
1056.7003,0.136703
1058.5639,0.136350
1060.4276,0.135781
1062.2913,0.135231
1064.1550,0.134870
1066.0186,0.134530
1067.8823,0.134174
1069.7460,0.133688
1071.6096,0.132950
1073.4733,0.131867
1075.3370,0.130225
1077.2006,0.127986
1079.0643,0.125197
1080.9280,0.122039
1082.7916,0.118604
1084.6553,0.114895
1086.5190,0.111348
1088.3826,0.108122
1090.2463,0.105355
1092.1100,0.103076
1093.9737,0.101127
1095.8373,0.099517
1097.7010,0.098067
1099.5647,0.096743
1101.4283,0.095661
1103.2920,0.094862
1105.1557,0.094214
1107.0193,0.093710
1108.8830,0.093361
1110.7467,0.093091
1112.6103,0.092771
1114.4740,0.092190
1116.3377,0.091227
1118.2014,0.090067
1120.0650,0.088858
1121.9287,0.087673
1123.7924,0.086515
1125.6560,0.085231
1127.5197,0.083931
1129.3834,0.082542
1131.2470,0.081070
1133.1107,0.079565
1134.9744,0.078022
1136.8380,0.076631
1138.7017,0.075448
1140.5654,0.074479
1142.4290,0.073838
1144.2927,0.073542
1146.1564,0.073555
1148.0201,0.073796
1149.8837,0.074123
1151.7474,0.074275
1153.6111,0.074315
1155.4747,0.074248
1157.3384,0.074025
1159.2021,0.073583
1161.0657,0.072934
1162.9294,0.072024
1164.7931,0.070732
1166.6567,0.069157
1168.5204,0.067375
1170.3841,0.065304
1172.2477,0.063000
1174.1114,0.060799
1175.9751,0.058779
1177.8388,0.057034
1179.7024,0.055833
1181.5661,0.055253
1183.4298,0.055114
1185.2934,0.055288
1187.1571,0.055716
1189.0208,0.056309
1190.8844,0.057027
1192.7481,0.057908
1194.6118,0.058951
1196.4754,0.060223
1198.3391,0.061604
1200.2028,0.063056
1202.0665,0.064445
1203.9301,0.065602
1205.7938,0.066571
1207.6575,0.067342
1209.5211,0.067879
1211.3848,0.068408
1213.2485,0.069007
1215.1121,0.069717
1216.9758,0.070540
1218.8395,0.071530
1220.7031,0.072707
1222.5668,0.073811
1224.4305,0.074883
1226.2941,0.075956
1228.1578,0.076813
1230.0215,0.077487
1231.8852,0.078136
1233.7488,0.078718
1235.6125,0.079078
1237.4762,0.079069
1239.3398,0.078977
1241.2035,0.078812
1243.0672,0.078300
1244.9308,0.077608
1246.7945,0.076925
1248.6582,0.076167
1250.5218,0.075336
1252.3855,0.074538
1254.2492,0.073805
1256.1129,0.073043
1257.9765,0.072283
1259.8402,0.071817
1261.7039,0.071371
1263.5675,0.070751
1265.4312,0.070473
1267.2949,0.070220
1269.1585,0.069823
1271.0222,0.069506
1272.8859,0.069175
1274.7495,0.068867
1276.6132,0.068766
1278.4769,0.068695
1280.3405,0.068615
1282.2042,0.068461
1284.0679,0.068333
1285.9316,0.068343
1287.7952,0.068514
1289.6589,0.068536
1291.5226,0.068508
1293.3862,0.068715
1295.2499,0.069169
1297.1136,0.069747
1298.9772,0.070340
1300.8409,0.070928
1302.7046,0.071505
1304.5682,0.072123
1306.4319,0.072628
1308.2956,0.073066
1310.1592,0.073520
1312.0229,0.074002
1313.8866,0.074201
1315.7503,0.074034
1317.6139,0.073990
1319.4776,0.073702
1321.3413,0.072969
1323.2049,0.072215
1325.0686,0.071655
1326.9323,0.071202
1328.7959,0.070845
1330.6596,0.070508
1332.5233,0.070128
1334.3869,0.069691
1336.2506,0.069729
1338.1143,0.070577
1339.9780,0.071293
1341.8416,0.070797
1343.7053,0.070168
1345.5690,0.069849
1347.4326,0.069627
1349.2963,0.069584
1351.1600,0.069519
1353.0236,0.069470
1354.8873,0.069611
1356.7510,0.069585
1358.6146,0.069588
1360.4783,0.070693
1362.3420,0.073097
1364.2056,0.074432
1366.0693,0.074892
1367.9330,0.076061
1369.7967,0.076890
1371.6603,0.077864
1373.5240,0.080215
1375.3877,0.081447
1377.2513,0.081127
1379.1150,0.081290
1380.9787,0.081135
1382.8423,0.080539
1384.7060,0.080167
1386.5697,0.081407
1388.4333,0.081652
1390.2970,0.079814
1392.1607,0.078940
1394.0244,0.080417
1395.8880,0.081545
1397.7517,0.081547
1399.6154,0.081664
1401.4790,0.080095
1403.3427,0.079623
1405.2064,0.080020
1407.0700,0.079147
1408.9337,0.078317
1410.7974,0.077895
1412.6610,0.076916
1414.5247,0.075674
1416.3884,0.075645
1418.2520,0.078606
1420.1157,0.079604
1421.9794,0.077651
1423.8431,0.077765
1425.7067,0.077503
1427.5704,0.077783
1429.4341,0.079895
1431.2977,0.080628
1433.1614,0.080163
1435.0251,0.082797
1436.8887,0.087985
1438.7524,0.087466
1440.6161,0.086225
1442.4797,0.086287
1444.3434,0.085974
1446.2071,0.086584
1448.0707,0.087641
1449.9344,0.086233
1451.7981,0.083639
1453.6618,0.081320
1455.5254,0.083208
1457.3891,0.087171
1459.2528,0.082285
1461.1164,0.077078
1462.9801,0.075657
1464.8438,0.076297
1466.7074,0.073660
1468.5711,0.069942
1470.4348,0.068655
1472.2984,0.070501
1474.1621,0.069860
1476.0258,0.067887
1477.8895,0.065971
1479.7531,0.064970
1481.6168,0.065180
1483.4805,0.064807
1485.3441,0.065189
1487.2078,0.068279
1489.0715,0.073649
1490.9351,0.076705
1492.7988,0.075526
1494.6625,0.077437
1496.5261,0.084262
1498.3898,0.088672
1500.2535,0.088826
1502.1171,0.087557
1503.9808,0.088987
1505.8445,0.100817
1507.7082,0.112226
1509.5718,0.109403
1511.4355,0.108506
1513.2992,0.109335
1515.1628,0.111300
1517.0265,0.113572
1518.8902,0.113623
1520.7538,0.117732
1522.6175,0.120320
1524.4812,0.119243
1526.3448,0.120540
1528.2085,0.120285
1530.0722,0.118877
1531.9359,0.120116
1533.7995,0.122215
1535.6632,0.118142
1537.5269,0.117124
1539.3905,0.123460
1541.2542,0.125817
1543.1179,0.122178
1544.9815,0.119121
1546.8452,0.115085
1548.7089,0.112742
1550.5725,0.110120
1552.4362,0.106561
1554.2999,0.103532
1556.1635,0.101361
1558.0272,0.106349
1559.8909,0.106989
1561.7546,0.098045
1563.6182,0.093743
1565.4819,0.091336
1567.3456,0.089718
1569.2092,0.089917
1571.0729,0.087331
1572.9366,0.083860
1574.8002,0.084811
1576.6639,0.087094
1578.5276,0.084493
1580.3912,0.082655
1582.2549,0.082664
1584.1186,0.083201
1585.9822,0.083919
1587.8459,0.084882
1589.7096,0.086337
1591.5733,0.088285
1593.4369,0.090805
1595.3006,0.093494
1597.1643,0.095737
1599.0279,0.098084
1600.8916,0.101315
1602.7553,0.104626
1604.6189,0.107623
1606.4826,0.111209
1608.3463,0.115257
1610.2099,0.118046
1612.0736,0.119535
1613.9373,0.121593
1615.8010,0.128042
1617.6646,0.132670
1619.5283,0.131176
1621.3920,0.132351
1623.2556,0.136363
1625.1193,0.137220
1626.9830,0.138060
1628.8466,0.138026
1630.7103,0.135581
1632.5740,0.134139
1634.4376,0.137385
1636.3013,0.138998
1638.1650,0.134058
1640.0286,0.129847
1641.8923,0.126742
1643.7560,0.124673
1645.6197,0.125117
1647.4833,0.122682
1649.3470,0.116981
1651.2107,0.116534
1653.0743,0.120395
1654.9380,0.113152
1656.8017,0.106371
1658.6653,0.102183
1660.5290,0.099161
1662.3927,0.096431
1664.2563,0.092035
1666.1200,0.087723
1667.9837,0.085473
1669.8474,0.082851
1671.7110,0.078240
1673.5747,0.074825
1675.4384,0.072083
1677.3020,0.067361
1679.1657,0.063095
1681.0294,0.059465
1682.8930,0.057734
1684.7567,0.055051
1686.6204,0.049742
1688.4840,0.045655
1690.3477,0.041646
1692.2114,0.037297
1694.0750,0.033979
1695.9387,0.030533
1697.8024,0.026782
1699.6661,0.024463
1701.5297,0.021389
1703.3934,0.018467
1705.2571,0.016637
1707.1207,0.014769
1708.9844,0.013120
1710.8481,0.011788
1712.7117,0.010908
1714.5754,0.010586
1716.4391,0.010673
1718.3027,0.010208
1720.1664,0.008947
1722.0301,0.008025
1723.8937,0.007644
1725.7574,0.007284
1727.6211,0.006901
1729.4848,0.006779
1731.3484,0.006888
1733.2121,0.007003
1735.0758,0.007264
1736.9394,0.006930
1738.8031,0.006656
1740.6668,0.006680
1742.5304,0.006483
1744.3941,0.006018
1746.2578,0.005761
1748.1214,0.005505
1749.9851,0.005167
1751.8488,0.004558
1753.7125,0.003608
1755.5761,0.002766
1757.4398,0.002499
1759.3035,0.002209
1761.1671,0.001980
1763.0308,0.001614
1764.8945,0.001121
1766.7581,0.000921
1768.6218,0.001017
1770.4855,0.001018
1772.3491,0.001360
1774.2128,0.001094
1776.0765,0.000505
1777.9401,0.000368
1779.8038,0.000503
1781.6675,0.000481
1783.5312,0.000274
1785.3948,0.000130
1787.2585,0.000057
1789.1222,0.000060
1790.9858,0.000168
1792.8495,0.000254
1794.7132,0.000031
1796.5768,-0.000166
1798.4405,0.000005
1800.3042,0.000038
1802.1678,-0.000201
1804.0315,-0.000435
1805.8952,-0.000689
1807.7589,-0.000828
1809.6225,-0.000614
1811.4862,-0.000450
1813.3499,-0.000695
1815.2135,-0.000879
1817.0772,-0.000927
1818.9409,-0.001138
1820.8045,-0.001041
1822.6682,-0.000741
1824.5319,-0.000700
1826.3955,-0.000908
1828.2592,-0.001015
1830.1229,-0.000824
1831.9865,-0.000763
1833.8502,-0.000927
1835.7139,-0.001016
1837.5776,-0.000984
1839.4412,-0.000947
1841.3049,-0.001000
1843.1686,-0.000592
1845.0322,-0.000267
1846.8959,-0.000718
1848.7596,-0.000756
1850.6232,-0.000671
1852.4869,-0.001112
1854.3506,-0.001320
1856.2142,-0.000956
1858.0779,-0.000497
1859.9416,-0.000603
1861.8052,-0.001010
1863.6689,-0.001075
1865.5326,-0.000892
1867.3963,-0.000647
1869.2599,-0.000453
1871.1236,-0.000655
1872.9873,-0.000830
1874.8509,-0.000865
1876.7146,-0.000893
1878.5783,-0.000692
1880.4419,-0.000356
1882.3056,-0.000400
1884.1693,-0.000553
1886.0329,-0.000731
1887.8966,-0.000959
1889.7603,-0.000947
1891.6240,-0.000838
1893.4876,-0.000874
1895.3513,-0.000857
1897.2150,-0.000313
1899.0786,-0.000173
1900.9423,-0.000229
1902.8060,-0.000151
1904.6696,-0.000792
1906.5333,-0.001013
1908.3970,-0.000543
1910.2606,-0.000180
1912.1243,0.000301
1913.9880,0.000492
1915.8516,0.000270
1917.7153,0.000107
1919.5790,0.000033
1921.4427,0.000120
1923.3063,-0.000093
1925.1700,-0.000487
1927.0337,-0.000204
1928.8973,0.000424
1930.7610,0.000508
1932.6247,-0.000056
1934.4883,-0.000470
1936.3520,-0.000010
1938.2157,0.000775
1940.0793,0.001284
1941.9430,0.001513
1943.8067,0.001381
1945.6704,0.001303
1947.5340,0.001191
1949.3977,0.000714
1951.2614,0.000289
1953.1250,0.000554
1954.9887,0.001418
1956.8524,0.001443
1958.7160,0.000863
1960.5797,0.000987
1962.4434,0.001135
1964.3070,0.001253
1966.1707,0.001623
1968.0344,0.001583
1969.8980,0.002414
1971.7617,0.003782
1973.6254,0.003982
1975.4891,0.003516
1977.3527,0.003418
1979.2164,0.003999
1981.0801,0.003964
1982.9437,0.003077
1984.8074,0.002680
1986.6711,0.003589
1988.5347,0.004242
1990.3984,0.003110
1992.2621,0.002121
1994.1257,0.001804
1995.9894,0.001678
1997.8531,0.002569
1999.7167,0.003071
2001.5804,0.002786
2003.4441,0.002877
2005.3078,0.002986
2007.1714,0.002904
2009.0351,0.003452
2010.8988,0.004189
2012.7624,0.004607
2014.6261,0.004711
2016.4898,0.004129
2018.3534,0.003780
2020.2171,0.004100
2022.0808,0.004745
2023.9444,0.004783
2025.8081,0.004064
2027.6718,0.004543
2029.5355,0.006309
2031.3991,0.006954
2033.2628,0.007073
2035.1265,0.007905
2036.9901,0.007548
2038.8538,0.007430
2040.7175,0.008553
2042.5811,0.008904
2044.4448,0.008661
2046.3085,0.009445
2048.1721,0.010542
2050.0358,0.010826
2051.8995,0.010681
2053.7631,0.010770
2055.6268,0.010701
2057.4905,0.010507
2059.3542,0.010518
2061.2178,0.010198
2063.0815,0.010048
2064.9452,0.010320
2066.8088,0.009972
2068.6725,0.009143
2070.5362,0.009002
2072.3998,0.008987
2074.2635,0.008184
2076.1272,0.008056
2077.9908,0.007963
2079.8545,0.007545
2081.7182,0.007309
2083.5819,0.007103
2085.4455,0.006387
2087.3092,0.005436
2089.1729,0.005230
2091.0365,0.005179
2092.9002,0.005382
2094.7639,0.005381
2096.6275,0.004623
2098.4912,0.004244
2100.3549,0.004479
2102.2185,0.005204
2104.0822,0.005080
2105.9459,0.004352
2107.8095,0.004774
2109.6732,0.005341
2111.5369,0.005239
2113.4006,0.005233
2115.2642,0.005136
2117.1279,0.004482
2118.9916,0.003898
2120.8552,0.004030
2122.7189,0.004009
2124.5826,0.003351
2126.4462,0.003238
2128.3099,0.003608
2130.1736,0.003186
2132.0372,0.003020
2133.9009,0.003799
2135.7646,0.004303
2137.6282,0.004479
2139.4919,0.004649
2141.3556,0.004654
2143.2193,0.004195
2145.0829,0.003240
2146.9466,0.002247
2148.8103,0.002692
2150.6739,0.003755
2152.5376,0.003989
2154.4013,0.004677
2156.2649,0.004662
2158.1286,0.005073
2159.9923,0.007831
2161.8559,0.009290
2163.7196,0.008721
2165.5833,0.007601
2167.4470,0.006691
2169.3106,0.006378
2171.1743,0.007184
2173.0380,0.007679
2174.9016,0.007364
2176.7653,0.007277
2178.6290,0.006645
2180.4926,0.006139
2182.3563,0.005631
2184.2200,0.005873
2186.0836,0.006151
2187.9473,0.005860
2189.8110,0.006061
2191.6746,0.006743
2193.5383,0.006876
2195.4020,0.006191
2197.2657,0.005728
2199.1293,0.006149
2200.9930,0.006216
2202.8567,0.005933
2204.7203,0.005753
2206.5840,0.005728
2208.4477,0.005460
2210.3113,0.005371
2212.1750,0.005673
2214.0387,0.006339
2215.9023,0.006455
2217.7660,0.005873
2219.6297,0.005326
2221.4934,0.005334
2223.3570,0.005385
2225.2207,0.005924
2227.0844,0.005931
2228.9480,0.005380
2230.8117,0.004959
2232.6754,0.005266
2234.5390,0.005678
2236.4027,0.005469
2238.2664,0.004998
2240.1300,0.005381
2241.9937,0.005764
2243.8574,0.005688
2245.7210,0.006070
2247.5847,0.006431
2249.4484,0.005538
2251.3121,0.004847
2253.1757,0.004730
2255.0394,0.004847
2256.9031,0.005013
2258.7667,0.004639
2260.6304,0.004860
2262.4941,0.004923
2264.3577,0.004369
2266.2214,0.004542
2268.0851,0.005185
2269.9487,0.005857
2271.8124,0.005518
2273.6761,0.005046
2275.5397,0.005155
2277.4034,0.005491
2279.2671,0.005424
2281.1308,0.005285
2282.9944,0.005397
2284.8581,0.005251
2286.7218,0.004992
2288.5854,0.004800
2290.4491,0.004507
2292.3128,0.004346
2294.1764,0.004269
2296.0401,0.004063
2297.9038,0.004040
2299.7674,0.004193
2301.6311,0.003982
2303.4948,0.003817
2305.3585,0.004031
2307.2221,0.004323
2309.0858,0.004292
2310.9495,0.004178
2312.8131,0.004035
2314.6768,0.003872
2316.5405,0.003792
2318.4041,0.003838
2320.2678,0.004232
2322.1315,0.004767
2323.9951,0.004978
2325.8588,0.004142
2327.7225,0.003135
2329.5861,0.002998
2331.4498,0.003319
2333.3135,0.003397
2335.1772,0.003106
2337.0408,0.003193
2338.9045,0.003642
2340.7682,0.004152
2342.6318,0.004229
2344.4955,0.003965
2346.3592,0.003624
2348.2228,0.003083
2350.0865,0.002231
2351.9502,0.001886
2353.8138,0.002029
2355.6775,0.002100
2357.5412,0.002529
2359.4049,0.003445
2361.2685,0.004249
2363.1322,0.004642
2364.9959,0.004789
2366.8595,0.004858
2368.7232,0.004893
2370.5869,0.004660
2372.4505,0.004337
2374.3142,0.004603
2376.1779,0.004918
2378.0415,0.004369
2379.9052,0.003706
2381.7689,0.003375
2383.6325,0.003179
2385.4962,0.003189
2387.3599,0.003204
2389.2236,0.003023
2391.0872,0.002978
2392.9509,0.003269
2394.8146,0.003511
2396.6782,0.003415
2398.5419,0.003146
2400.4056,0.003098
2402.2692,0.003064
2404.1329,0.003006
2405.9966,0.003286
2407.8602,0.003664
2409.7239,0.003775
2411.5876,0.003710
2413.4512,0.003659
2415.3149,0.003759
2417.1786,0.003746
2419.0423,0.003776
2420.9059,0.003710
2422.7696,0.003716
2424.6333,0.004188
2426.4969,0.004277
2428.3606,0.003967
2430.2243,0.004080
2432.0879,0.004261
2433.9516,0.004259
2435.8153,0.004345
2437.6789,0.004388
2439.5426,0.004468
2441.4063,0.004631
2443.2700,0.004755
2445.1336,0.004779
2446.9973,0.004736
2448.8610,0.004510
2450.7246,0.004335
2452.5883,0.004559
2454.4520,0.004721
2456.3156,0.004936
2458.1793,0.005085
2460.0430,0.004740
2461.9066,0.004575
2463.7703,0.005131
2465.6340,0.005318
2467.4976,0.004952
2469.3613,0.004698
2471.2250,0.005081
2473.0887,0.005290
2474.9523,0.005064
2476.8160,0.005039
2478.6797,0.005261
2480.5433,0.005065
2482.4070,0.005028
2484.2707,0.005121
2486.1343,0.005153
2487.9980,0.005267
2489.8617,0.005562
2491.7253,0.005647
2493.5890,0.005418
2495.4527,0.005432
2497.3164,0.005803
2499.1800,0.006113
2501.0437,0.006181
2502.9074,0.005932
2504.7710,0.005606
2506.6347,0.005668
2508.4984,0.006198
2510.3620,0.006359
2512.2257,0.006153
2514.0894,0.006040
2515.9530,0.006107
2517.8167,0.006162
2519.6804,0.006476
2521.5440,0.006529
2523.4077,0.006526
2525.2714,0.006754
2527.1351,0.006654
2528.9987,0.006507
2530.8624,0.006657
2532.7261,0.006456
2534.5897,0.006633
2536.4534,0.006689
2538.3171,0.006745
2540.1807,0.006712
2542.0444,0.006730
2543.9081,0.006960
2545.7717,0.006899
2547.6354,0.006712
2549.4991,0.007020
2551.3627,0.007265
2553.2264,0.007389
2555.0901,0.007384
2556.9538,0.007170
2558.8174,0.007036
2560.6811,0.007267
2562.5448,0.007290
2564.4084,0.007311
2566.2721,0.007612
2568.1358,0.007815
2569.9994,0.007966
2571.8631,0.008122
2573.7268,0.008082
2575.5904,0.008107
2577.4541,0.007942
2579.3178,0.007922
2581.1815,0.008072
2583.0451,0.008051
2584.9088,0.008062
2586.7725,0.008219
2588.6361,0.008555
2590.4998,0.008675
2592.3635,0.008563
2594.2271,0.008623
2596.0908,0.008824
2597.9545,0.008901
2599.8181,0.009093
2601.6818,0.009430
2603.5455,0.009340
2605.4091,0.009243
2607.2728,0.009294
2609.1365,0.009497
2611.0002,0.009699
2612.8638,0.009810
2614.7275,0.009769
2616.5912,0.009743
2618.4548,0.009861
