Wavenumber,Intensity
650.4205,0.086611
652.2841,0.085931
654.1478,0.085367
656.0115,0.085530
657.8751,0.087174
659.7388,0.085615
661.6025,0.084957
663.4661,0.084807
665.3298,0.083278
667.1935,0.082858
669.0571,0.083470
670.9208,0.081649
672.7845,0.080757
674.6481,0.081196
676.5118,0.081548
678.3755,0.080536
680.2392,0.079644
682.1028,0.078441
683.9665,0.077963
685.8302,0.077738
687.6938,0.077468
689.5575,0.076313
691.4212,0.076533
693.2848,0.075823
695.1485,0.074126
697.0122,0.074328
698.8758,0.074839
700.7395,0.074669
702.6032,0.074060
704.4669,0.072425
706.3305,0.071589
708.1942,0.070228
710.0579,0.068560
711.9215,0.067787
713.7852,0.068000
715.6489,0.067647
717.5125,0.066462
719.3762,0.065769
721.2399,0.066235
723.1035,0.066154
724.9672,0.064705
726.8309,0.063658
728.6945,0.063482
730.5582,0.063306
732.4219,0.062424
734.2856,0.061044
736.1492,0.060692
738.0129,0.061466
739.8766,0.061451
741.7402,0.060635
743.6039,0.060090
745.4676,0.059587
747.3312,0.059287
749.1949,0.058935
751.0586,0.058143
752.9222,0.057225
754.7859,0.056944
756.6496,0.056738
758.5132,0.056394
760.3769,0.056004
762.2406,0.055357
764.1043,0.054904
765.9679,0.055032
767.8316,0.054863
769.6953,0.054434
771.5589,0.053906
773.4226,0.053308
775.2863,0.052917
777.1499,0.052550
779.0136,0.052196
780.8773,0.051807
782.7409,0.051739
784.6046,0.051550
786.4683,0.050886
788.3320,0.050325
790.1956,0.049928
792.0593,0.049927
793.9230,0.049712
795.7866,0.049081
797.6503,0.048806
799.5140,0.048557
801.3776,0.048406
803.2413,0.048404
805.1050,0.048111
806.9686,0.047811
808.8323,0.047710
810.6960,0.047490
812.5596,0.047057
814.4233,0.046611
816.2870,0.046356
818.1507,0.046085
820.0143,0.045329
821.8780,0.044515
823.7417,0.044363
825.6053,0.044233
827.4690,0.043762
829.3327,0.043373
831.1963,0.043008
833.0600,0.042641
834.9237,0.042364
836.7873,0.042041
838.6510,0.041578
840.5147,0.040950
842.3784,0.040480
844.2420,0.040397
846.1057,0.040283
847.9694,0.040145
849.8330,0.039936
851.6967,0.039571
853.5604,0.039475
855.4240,0.039484
857.2877,0.039293
859.1514,0.039181
861.0150,0.039245
862.8787,0.039260
864.7424,0.039125
866.6060,0.039206
868.4697,0.039374
870.3334,0.039436
872.1971,0.039561
874.0607,0.039563
875.9244,0.039287
877.7881,0.039160
879.6517,0.039202
881.5154,0.039045
883.3791,0.038880
885.2427,0.038772
887.1064,0.038595
888.9701,0.038549
890.8337,0.038526
892.6974,0.038583
894.5611,0.038642
896.4247,0.038589
898.2884,0.038526
900.1521,0.038537
902.0158,0.038535
903.8794,0.038545
905.7431,0.038723
907.6068,0.039052
909.4704,0.039235
911.3341,0.039477
913.1978,0.039807
915.0614,0.040050
916.9251,0.040189
918.7888,0.040253
920.6524,0.040171
922.5161,0.040161
924.3798,0.040303
926.2435,0.040352
928.1071,0.040382
929.9708,0.040358
931.8345,0.040327
933.6981,0.040445
935.5618,0.040623
937.4255,0.040723
939.2891,0.040839
941.1528,0.041028
943.0165,0.041279
944.8801,0.041543
946.7438,0.041786
948.6075,0.042092
950.4711,0.042440
952.3348,0.042819
954.1985,0.043397
956.0622,0.044130
957.9258,0.044791
959.7895,0.045408
961.6532,0.046074
963.5168,0.046668
965.3805,0.047135
967.2442,0.047522
969.1078,0.047723
970.9715,0.047719
972.8352,0.047642
974.6988,0.047679
976.5625,0.047802
978.4262,0.048000
980.2899,0.048357
982.1535,0.048801
984.0172,0.049264
985.8809,0.049730
987.7445,0.050283
989.6082,0.050981
991.4719,0.051649
993.3355,0.052425
995.1992,0.053282
997.0629,0.054017
998.9265,0.054663
1000.7902,0.055306
1002.6539,0.056094
1004.5175,0.057059
1006.3812,0.058087
1008.2449,0.059189
1010.1086,0.060378
1011.9722,0.061635
1013.8359,0.062852
1015.6996,0.063981
1017.5632,0.065011
1019.4269,0.065951
1021.2906,0.066776
1023.1542,0.067438
1025.0179,0.067980
1026.8816,0.068526
1028.7452,0.068971
1030.6089,0.069340
1032.4726,0.069646
1034.3362,0.069898
1036.1999,0.070200
1038.0636,0.070527
1039.9273,0.070684
1041.7909,0.070730
1043.6546,0.070750
1045.5183,0.070850
1047.3819,0.070989
1049.2456,0.071080
1051.1093,0.071082
1052.9729,0.071046
1054.8366,0.071002
1056.7003,0.070944
1058.5639,0.070751
1060.4276,0.070686
1062.2913,0.070600
1064.1550,0.070441
1066.0186,0.070320
1067.8823,0.070245
1069.7460,0.070193
1071.6096,0.069983
1073.4733,0.069621
1075.3370,0.069316
1077.2006,0.068849
1079.0643,0.068127
1080.9280,0.067109
1082.7916,0.065953
1084.6553,0.064711
1086.5190,0.063335
1088.3826,0.061941
1090.2463,0.060731
1092.1100,0.059675
1093.9737,0.058683
1095.8373,0.057817
1097.7010,0.057140
1099.5647,0.056498
1101.4283,0.055834
1103.2920,0.055215
1105.1557,0.054646
1107.0193,0.054113
1108.8830,0.053765
1110.7467,0.053527
1112.6103,0.053304
1114.4740,0.053062
1116.3377,0.052670
1118.2014,0.052224
1120.0650,0.051745
1121.9287,0.051196
1123.7924,0.050661
1125.6560,0.050123
1127.5197,0.049519
1129.3834,0.048871
1131.2470,0.048271
1133.1107,0.047629
1134.9744,0.046976
1136.8380,0.046421
1138.7017,0.045992
1140.5654,0.045605
1142.4290,0.045396
1144.2927,0.045368
1146.1564,0.045398
1148.0201,0.045490
1149.8837,0.045667
1151.7474,0.045915
1153.6111,0.046088
1155.4747,0.046138
1157.3384,0.046118
1159.2021,0.045998
1161.0657,0.045882
1162.9294,0.045753
1164.7931,0.045518
1166.6567,0.045251
1168.5204,0.044907
1170.3841,0.044415
1172.2477,0.043749
1174.1114,0.042967
1175.9751,0.042255
1177.8388,0.041647
1179.7024,0.041291
1181.5661,0.041128
1183.4298,0.041139
1185.2934,0.041359
1187.1571,0.041724
1189.0208,0.042113
1190.8844,0.042573
1192.7481,0.043058
1194.6118,0.043615
1196.4754,0.044283
1198.3391,0.044938
1200.2028,0.045595
1202.0665,0.046308
1203.9301,0.047047
1205.7938,0.047710
1207.6575,0.048206
1209.5211,0.048592
1211.3848,0.048994
1213.2485,0.049567
1215.1121,0.050148
1216.9758,0.050712
1218.8395,0.051296
1220.7031,0.051890
1222.5668,0.052434
1224.4305,0.052925
1226.2941,0.053490
1228.1578,0.053939
1230.0215,0.054114
1231.8852,0.054299
1233.7488,0.054470
1235.6125,0.054508
1237.4762,0.054389
1239.3398,0.054120
1241.2035,0.053699
1243.0672,0.053175
1244.9308,0.052642
1246.7945,0.052086
1248.6582,0.051419
1250.5218,0.050770
1252.3855,0.050200
1254.2492,0.049614
1256.1129,0.049041
1257.9765,0.048582
1259.8402,0.048199
1261.7039,0.047838
1263.5675,0.047573
1265.4312,0.047329
1267.2949,0.047062
1269.1585,0.046922
1271.0222,0.046794
1272.8859,0.046627
1274.7495,0.046497
1276.6132,0.046453
1278.4769,0.046437
1280.3405,0.046374
1282.2042,0.046324
1284.0679,0.046324
1285.9316,0.046343
1287.7952,0.046437
1289.6589,0.046489
1291.5226,0.046529
1293.3862,0.046632
1295.2499,0.046779
1297.1136,0.046894
1298.9772,0.047041
1300.8409,0.047199
1302.7046,0.047307
1304.5682,0.047360
1306.4319,0.047445
1308.2956,0.047482
1310.1592,0.047429
1312.0229,0.047441
1313.8866,0.047425
1315.7503,0.047200
1317.6139,0.046956
1319.4776,0.046749
1321.3413,0.046453
1323.2049,0.046122
1325.0686,0.045884
1326.9323,0.045701
1328.7959,0.045578
1330.6596,0.045545
1332.5233,0.045523
1334.3869,0.045414
1336.2506,0.045432
1338.1143,0.045724
1339.9780,0.046119
1341.8416,0.046046
1343.7053,0.045848
1345.5690,0.045658
1347.4326,0.045575
1349.2963,0.045595
1351.1600,0.045586
1353.0236,0.045756
1354.8873,0.046008
1356.7510,0.046015
1358.6146,0.046126
1360.4783,0.046771
1362.3420,0.048171
1364.2056,0.049037
1366.0693,0.049233
1367.9330,0.049804
1369.7967,0.050301
1371.6603,0.050801
1373.5240,0.052128
1375.3877,0.053160
1377.2513,0.053525
1379.1150,0.054029
1380.9787,0.054413
1382.8423,0.054553
1384.7060,0.054834
1386.5697,0.055780
1388.4333,0.056042
1390.2970,0.055287
1392.1607,0.054960
1394.0244,0.055528
1395.8880,0.055886
1397.7517,0.055754
1399.6154,0.055500
1401.4790,0.054470
1403.3427,0.053904
1405.2064,0.053717
1407.0700,0.053047
1408.9337,0.052238
1410.7974,0.051740
1412.6610,0.051199
1414.5247,0.050440
1416.3884,0.050091
1418.2520,0.051103
1420.1157,0.051322
1421.9794,0.050355
1423.8431,0.050341
1425.7067,0.050259
1427.5704,0.050318
1429.4341,0.051274
1431.2977,0.051913
1433.1614,0.052094
1435.0251,0.053481
1436.8887,0.055966
1438.7524,0.055876
1440.6161,0.055247
1442.4797,0.055365
1444.3434,0.055474
1446.2071,0.055614
1448.0707,0.056049
1449.9344,0.055543
1451.7981,0.054535
1453.6618,0.053626
1455.5254,0.054163
1457.3891,0.055539
1459.2528,0.053655
1461.1164,0.051346
1462.9801,0.050652
1464.8438,0.051027
1466.7074,0.049911
1468.5711,0.048145
1470.4348,0.047480
1472.2984,0.048293
1474.1621,0.048079
1476.0258,0.047490
1477.8895,0.047027
1479.7531,0.047035
1481.6168,0.047729
1483.4805,0.048104
1485.3441,0.048744
1487.2078,0.050896
1489.0715,0.054443
1490.9351,0.056769
1492.7988,0.056584
1494.6625,0.057690
1496.5261,0.061386
1498.3898,0.064262
1500.2535,0.064859
1502.1171,0.064686
1503.9808,0.065244
1505.8445,0.069751
1507.7082,0.075837
1509.5718,0.075274
1511.4355,0.074953
1513.2992,0.075426
1515.1628,0.076190
1517.0265,0.076987
1518.8902,0.076703
1520.7538,0.077691
1522.6175,0.078510
1524.4812,0.078177
1526.3448,0.078509
1528.2085,0.078391
1530.0722,0.077726
1531.9359,0.077829
1533.7995,0.078543
1535.6632,0.077246
1537.5269,0.076442
1539.3905,0.077225
1541.2542,0.077029
1543.1179,0.075430
1544.9815,0.074016
1546.8452,0.071925
1548.7089,0.070304
1550.5725,0.068451
1552.4362,0.066248
1554.2999,0.064259
1556.1635,0.062441
1558.0272,0.062621
1559.8909,0.061315
1561.7546,0.058026
1563.6182,0.056539
1565.4819,0.055305
1567.3456,0.054184
1569.2092,0.053842
1571.0729,0.052545
1572.9366,0.051118
1574.8002,0.051121
1576.6639,0.051577
1578.5276,0.050569
1580.3912,0.049836
1582.2549,0.049624
1584.1186,0.049640
1585.9822,0.049866
1587.8459,0.050403
1589.7096,0.051128
1591.5733,0.051842
1593.4369,0.052819
1595.3006,0.054078
1597.1643,0.055281
1599.0279,0.056579
1600.8916,0.058276
1602.7553,0.060102
1604.6189,0.062013
1606.4826,0.064213
1608.3463,0.066669
1610.2099,0.068849
1612.0736,0.070546
1613.9373,0.072168
1615.8010,0.075105
1617.6646,0.078054
1619.5283,0.078857
1621.3920,0.079970
1623.2556,0.082162
1625.1193,0.083471
1626.9830,0.084044
1628.8466,0.084379
1630.7103,0.084311
1632.5740,0.084308
1634.4376,0.084903
1636.3013,0.084742
1638.1650,0.083205
1640.0286,0.082001
1641.8923,0.080746
1643.7560,0.079638
1645.6197,0.078819
1647.4833,0.077112
1649.3470,0.075010
1651.2107,0.073870
1653.0743,0.072382
1654.9380,0.068995
1656.8017,0.066800
1658.6653,0.064682
1660.5290,0.062348
1662.3927,0.059958
1664.2563,0.057430
1666.1200,0.055378
1667.9837,0.053597
1669.8474,0.051247
1671.7110,0.048791
1673.5747,0.047095
1675.4384,0.045087
1677.3020,0.042505
1679.1657,0.040925
1681.0294,0.038995
1682.8930,0.037389
1684.7567,0.034659
1686.6204,0.031531
1688.4840,0.029941
1690.3477,0.027628
1692.2114,0.025359
1694.0750,0.023754
1695.9387,0.021390
1697.8024,0.018675
1699.6661,0.017312
1701.5297,0.014425
1703.3934,0.013492
1705.2571,0.012820
1707.1207,0.011221
1708.9844,0.010449
1710.8481,0.010018
1712.7117,0.009566
1714.5754,0.009120
1716.4391,0.008440
1718.3027,0.007548
1720.1664,0.007022
1722.0301,0.007177
1723.8937,0.007023
1725.7574,0.006828
1727.6211,0.006729
1729.4848,0.006610
1731.3484,0.006603
1733.2121,0.006890
1735.0758,0.006073
1736.9394,0.005773
1738.8031,0.006228
1740.6668,0.006002
1742.5304,0.005860
1744.3941,0.005641
1746.2578,0.005378
1748.1214,0.005223
1749.9851,0.004828
1751.8488,0.004287
1753.7125,0.004013
1755.5761,0.004032
1757.4398,0.003645
1759.3035,0.003541
1761.1671,0.003640
1763.0308,0.003185
1764.8945,0.003189
1766.7581,0.003398
1768.6218,0.003176
1770.4855,0.003166
1772.3491,0.002913
1774.2128,0.002317
1776.0765,0.002722
1777.9401,0.003049
1779.8038,0.003130
1781.6675,0.002939
1783.5312,0.002813
1785.3948,0.002680
1787.2585,0.002750
1789.1222,0.002993
1790.9858,0.002971
1792.8495,0.002529
1794.7132,0.002423
1796.5768,0.002752
1798.4405,0.002977
1800.3042,0.002862
1802.1678,0.002659
1804.0315,0.002647
1805.8952,0.002678
1807.7589,0.002756
1809.6225,0.002700
1811.4862,0.002478
1813.3499,0.002403
1815.2135,0.002518
1817.0772,0.002575
1818.9409,0.002577
1820.8045,0.002684
1822.6682,0.002841
1824.5319,0.002793
1826.3955,0.002613
1828.2592,0.002761
1830.1229,0.002594
1831.9865,0.002252
1833.8502,0.002428
1835.7139,0.002486
1837.5776,0.002446
1839.4412,0.002257
1841.3049,0.002327
1843.1686,0.002769
1845.0322,0.002831
1846.8959,0.002722
1848.7596,0.002549
1850.6232,0.002105
1852.4869,0.002212
1854.3506,0.002509
1856.2142,0.002520
1858.0779,0.002373
1859.9416,0.002428
1861.8052,0.002371
1863.6689,0.002161
1865.5326,0.002152
1867.3963,0.002629
1869.2599,0.002637
1871.1236,0.002442
1872.9873,0.002444
1874.8509,0.002244
1876.7146,0.002154
1878.5783,0.002380
1880.4419,0.002378
1882.3056,0.002173
1884.1693,0.002236
1886.0329,0.002366
1887.8966,0.002223
1889.7603,0.001932
1891.6240,0.002085
1893.4876,0.002540
1895.3513,0.002448
1897.2150,0.002382
1899.0786,0.002437
1900.9423,0.002247
1902.8060,0.001922
1904.6696,0.001821
1906.5333,0.001940
1908.3970,0.002263
1910.2606,0.002268
1912.1243,0.001921
1913.9880,0.001862
1915.8516,0.002040
1917.7153,0.002053
1919.5790,0.001655
1921.4427,0.001937
1923.3063,0.002422
1925.1700,0.001884
1927.0337,0.001293
1928.8973,0.001466
1930.7610,0.002089
1932.6247,0.001984
1934.4883,0.001507
1936.3520,0.001540
1938.2157,0.001907
1940.0793,0.001692
1941.9430,0.001367
1943.8067,0.001080
1945.6704,0.001178
1947.5340,0.001092
1949.3977,0.000820
1951.2614,0.001356
1953.1250,0.001325
1954.9887,0.000326
1956.8524,-0.000141
1958.7160,-0.000525
1960.5797,-0.000084
1962.4434,0.001047
1964.3070,0.000739
1966.1707,-0.000372
1968.0344,-0.000400
1969.8980,0.000246
1971.7617,0.000167
1973.6254,0.000245
1975.4891,0.001297
1977.3527,0.000935
1979.2164,0.000862
1981.0801,0.001161
1982.9437,0.000588
1984.8074,0.000573
1986.6711,0.001121
1988.5347,0.000901
1990.3984,0.000267
1992.2621,-0.000422
1994.1257,-0.000355
1995.9894,0.000909
1997.8531,0.001543
1999.7167,0.000373
2001.5804,-0.000240
2003.4441,-0.000137
2005.3078,-0.000671
2007.1714,-0.000470
2009.0351,0.000718
2010.8988,-0.000128
2012.7624,-0.001174
2014.6261,-0.000942
2016.4898,-0.001017
2018.3534,-0.001447
2020.2171,-0.001168
2022.0808,-0.000185
2023.9444,0.000221
2025.8081,-0.000118
2027.6718,0.000123
2029.5355,0.000667
2031.3991,-0.000471
2033.2628,-0.001566
2035.1265,-0.001378
2036.9901,-0.000278
2038.8538,0.001180
2040.7175,0.001417
2042.5811,0.001801
2044.4448,0.001520
2046.3085,0.000928
2048.1721,0.001917
2050.0358,0.002365
2051.8995,0.001925
2053.7631,0.001962
2055.6268,0.001876
2057.4905,0.001568
2059.3542,0.001789
2061.2178,0.002397
2063.0815,0.002552
2064.9452,0.002416
2066.8088,0.002337
2068.6725,0.002587
2070.5362,0.002606
2072.3998,0.002197
2074.2635,0.002341
2076.1272,0.002993
2077.9908,0.002867
2079.8545,0.002675
2081.7182,0.003095
2083.5819,0.003297
2085.4455,0.002965
2087.3092,0.002725
2089.1729,0.002682
2091.0365,0.002651
2092.9002,0.002413
2094.7639,0.002352
2096.6275,0.002629
2098.4912,0.002787
2100.3549,0.002696
2102.2185,0.003097
2104.0822,0.003524
2105.9459,0.003420
2107.8095,0.003102
2109.6732,0.002678
2111.5369,0.002355
2113.4006,0.002236
2115.2642,0.002655
2117.1279,0.003223
2118.9916,0.003469
2120.8552,0.003428
2122.7189,0.002887
2124.5826,0.002566
2126.4462,0.002506
2128.3099,0.002412
2130.1736,0.002213
2132.0372,0.001871
2133.9009,0.001298
2135.7646,0.000589
2137.6282,0.000159
2139.4919,-0.000003
2141.3556,-0.000513
2143.2193,-0.000996
2145.0829,-0.000746
2146.9466,0.000529
2148.8103,0.000653
2150.6739,-0.000088
2152.5376,-0.001642
2154.4013,-0.003155
2156.2649,-0.001823
2158.1286,-0.000615
2159.9923,0.000019
2161.8559,0.001074
2163.7196,0.000851
2165.5833,0.000440
2167.4470,0.000838
2169.3106,0.000748
2171.1743,0.000144
2173.0380,-0.000050
2174.9016,0.000811
2176.7653,0.001941
2178.6290,0.001630
2180.4926,0.001444
2182.3563,0.002098
2184.2200,0.002271
2186.0836,0.002143
2187.9473,0.000942
2189.8110,0.000534
2191.6746,0.002148
2193.5383,0.002940
2195.4020,0.002634
2197.2657,0.001879
2199.1293,0.000942
2200.9930,0.001051
2202.8567,0.002032
2204.7203,0.002589
2206.5840,0.002633
2208.4477,0.001634
2210.3113,0.001887
2212.1750,0.003371
2214.0387,0.003264
2215.9023,0.002294
2217.7660,0.002472
2219.6297,0.002623
2221.4934,0.002706
2223.3570,0.002859
2225.2207,0.002620
2227.0844,0.002706
2228.9480,0.003278
2230.8117,0.003617
2232.6754,0.002936
2234.5390,0.002091
2236.4027,0.002629
2238.2664,0.003833
2240.1300,0.004189
2241.9937,0.003782
2243.8574,0.003945
2245.7210,0.004257
2247.5847,0.003645
2249.4484,0.003462
2251.3121,0.003948
2253.1757,0.003731
2255.0394,0.003522
2256.9031,0.003522
2258.7667,0.004029
2260.6304,0.004377
2262.4941,0.003988
2264.3577,0.004128
2266.2214,0.004760
2268.0851,0.005078
2269.9487,0.005211
2271.8124,0.004519
2273.6761,0.003876
2275.5397,0.004315
2277.4034,0.005029
2279.2671,0.005401
2281.1308,0.005709
2282.9944,0.005833
2284.8581,0.005768
2286.7218,0.005791
2288.5854,0.005673
2290.4491,0.005438
2292.3128,0.005237
2294.1764,0.005213
2296.0401,0.005389
2297.9038,0.005518
2299.7674,0.005575
2301.6311,0.005276
2303.4948,0.005007
2305.3585,0.005159
2307.2221,0.005396
2309.0858,0.005192
2310.9495,0.005085
2312.8131,0.005402
2314.6768,0.005651
2316.5405,0.005518
2318.4041,0.005499
2320.2678,0.005814
2322.1315,0.005531
2323.9951,0.004998
2325.8588,0.004829
2327.7225,0.004832
2329.5861,0.004957
2331.4498,0.005275
2333.3135,0.005292
2335.1772,0.004721
2337.0408,0.004576
2338.9045,0.005234
2340.7682,0.005543
2342.6318,0.005019
2344.4955,0.004536
2346.3592,0.004448
2348.2228,0.004445
2350.0865,0.004487
2351.9502,0.004354
2353.8138,0.004596
2355.6775,0.004785
2357.5412,0.003941
2359.4049,0.003955
2361.2685,0.004546
2363.1322,0.004594
2364.9959,0.004733
2366.8595,0.004959
2368.7232,0.004921
2370.5869,0.005124
2372.4505,0.005340
2374.3142,0.005848
2376.1779,0.005912
2378.0415,0.005658
2379.9052,0.005431
2381.7689,0.005383
2383.6325,0.005435
2385.4962,0.005419
2387.3599,0.005582
2389.2236,0.005610
2391.0872,0.005536
2392.9509,0.005418
2394.8146,0.005305
2396.6782,0.005356
2398.5419,0.005366
2400.4056,0.005440
2402.2692,0.005710
2404.1329,0.006037
2405.9966,0.006025
2407.8602,0.005888
2409.7239,0.005800
2411.5876,0.005749
2413.4512,0.005683
2415.3149,0.005670
2417.1786,0.005916
2419.0423,0.006036
2420.9059,0.006031
2422.7696,0.006066
2424.6333,0.005942
2426.4969,0.005844
2428.3606,0.005822
2430.2243,0.005935
2432.0879,0.006099
2433.9516,0.006076
2435.8153,0.006296
2437.6789,0.006573
2439.5426,0.006327
2441.4063,0.006238
2443.2700,0.006291
2445.1336,0.006275
2446.9973,0.006182
2448.8610,0.006198
2450.7246,0.006356
2452.5883,0.006683
2454.4520,0.006778
2456.3156,0.006497
2458.1793,0.006361
2460.0430,0.006470
2461.9066,0.006563
2463.7703,0.006697
2465.6340,0.006592
2467.4976,0.006505
2469.3613,0.006475
2471.2250,0.006386
2473.0887,0.006479
2474.9523,0.006650
2476.8160,0.006578
2478.6797,0.006436
2480.5433,0.006570
2482.4070,0.006817
2484.2707,0.007014
2486.1343,0.006998
2487.9980,0.006906
2489.8617,0.007083
2491.7253,0.007057
2493.5890,0.007342
2495.4527,0.007521
2497.3164,0.007413
2499.1800,0.007333
2501.0437,0.007122
2502.9074,0.006839
2504.7710,0.006913
2506.6347,0.007117
2508.4984,0.007330
2510.3620,0.007526
2512.2257,0.007451
2514.0894,0.007488
2515.9530,0.007843
2517.8167,0.007669
2519.6804,0.007199
2521.5440,0.007470
2523.4077,0.007880
2525.2714,0.007586
2527.1351,0.007470
2528.9987,0.007775
2530.8624,0.008037
2532.7261,0.008034
2534.5897,0.008021
2536.4534,0.007937
2538.3171,0.007851
2540.1807,0.007967
2542.0444,0.008241
2543.9081,0.008277
2545.7717,0.008142
2547.6354,0.008141
2549.4991,0.008246
2551.3627,0.008222
2553.2264,0.008294
2555.0901,0.008353
2556.9538,0.008164
2558.8174,0.008459
2560.6811,0.008751
2562.5448,0.008554
2564.4084,0.008500
2566.2721,0.008271
2568.1358,0.008457
2569.9994,0.008790
2571.8631,0.008884
2573.7268,0.008895
2575.5904,0.008818
2577.4541,0.008826
2579.3178,0.008873
2581.1815,0.008672
2583.0451,0.008751
2584.9088,0.009003
2586.7725,0.008950
2588.6361,0.008920
2590.4998,0.009169
2592.3635,0.009304
2594.2271,0.009426
2596.0908,0.009306
2597.9545,0.009482
2599.8181,0.009679
2601.6818,0.009592
2603.5455,0.009854
2605.4091,0.010233
2607.2728,0.010175
2609.1365,0.009999
2611.0002,0.009773
2612.8638,0.009795
2614.7275,0.009888
2616.5912,0.009797
2618.4548,0.009948
2620.3185,0.010315
2622.1822,0.010531
