Wavenumber,Intensity
650.4205,0.148178
652.2841,0.147114
654.1478,0.144231
656.0115,0.144729
657.8751,0.146302
659.7388,0.146126
661.6025,0.145100
663.4661,0.142805
665.3298,0.139727
667.1935,0.138167
669.0571,0.138834
670.9208,0.137998
672.7845,0.138590
674.6481,0.137926
676.5118,0.138887
678.3755,0.138053
680.2392,0.135361
682.1028,0.133096
683.9665,0.133335
685.8302,0.132387
687.6938,0.130565
689.5575,0.129996
691.4212,0.129587
693.2848,0.128560
695.1485,0.127959
697.0122,0.127208
698.8758,0.126875
700.7395,0.126975
702.6032,0.126611
704.4669,0.124227
706.3305,0.122940
708.1942,0.122129
710.0579,0.120881
711.9215,0.119566
713.7852,0.118106
715.6489,0.117231
717.5125,0.116738
719.3762,0.115555
721.2399,0.114514
723.1035,0.112903
724.9672,0.111926
726.8309,0.111124
728.6945,0.110234
730.5582,0.109465
732.4219,0.108751
734.2856,0.108409
736.1492,0.108077
738.0129,0.106897
739.8766,0.106493
741.7402,0.106450
743.6039,0.106030
745.4676,0.105575
747.3312,0.104712
749.1949,0.103496
751.0586,0.102853
752.9222,0.102026
754.7859,0.100665
756.6496,0.100521
758.5132,0.100911
760.3769,0.100160
762.2406,0.099309
764.1043,0.098601
765.9679,0.098698
767.8316,0.098306
769.6953,0.096878
771.5589,0.095567
773.4226,0.094507
775.2863,0.093439
777.1499,0.092791
779.0136,0.092073
780.8773,0.091461
782.7409,0.090617
784.6046,0.089559
786.4683,0.088697
788.3320,0.088031
790.1956,0.087063
792.0593,0.086102
793.9230,0.085255
795.7866,0.084877
797.6503,0.084725
799.5140,0.084305
801.3776,0.083720
803.2413,0.083552
805.1050,0.083265
806.9686,0.083032
808.8323,0.082682
810.6960,0.082474
812.5596,0.082495
814.4233,0.082688
816.2870,0.082946
818.1507,0.082681
820.0143,0.081723
821.8780,0.080825
823.7417,0.079570
825.6053,0.077798
827.4690,0.076300
829.3327,0.075011
831.1963,0.073946
833.0600,0.073226
834.9237,0.072243
836.7873,0.071433
838.6510,0.070549
840.5147,0.069755
842.3784,0.068987
844.2420,0.068340
846.1057,0.068020
847.9694,0.067956
849.8330,0.067635
851.6967,0.067157
853.5604,0.067217
855.4240,0.067473
857.2877,0.067439
859.1514,0.067598
861.0150,0.068237
862.8787,0.069012
864.7424,0.069872
866.6060,0.071363
868.4697,0.073613
870.3334,0.075524
872.1971,0.075137
874.0607,0.073207
875.9244,0.071329
877.7881,0.070058
879.6517,0.069149
881.5154,0.068283
883.3791,0.067665
885.2427,0.067251
887.1064,0.066984
888.9701,0.066967
890.8337,0.067131
892.6974,0.067254
894.5611,0.067413
896.4247,0.067213
898.2884,0.066729
900.1521,0.066382
902.0158,0.066011
903.8794,0.065779
905.7431,0.065543
907.6068,0.065285
909.4704,0.065354
911.3341,0.065782
913.1978,0.066210
915.0614,0.066758
916.9251,0.067163
918.7888,0.067325
920.6524,0.067409
922.5161,0.067502
924.3798,0.067694
926.2435,0.067790
928.1071,0.067787
929.9708,0.068032
931.8345,0.068338
933.6981,0.068568
935.5618,0.069040
937.4255,0.069760
939.2891,0.070699
941.1528,0.071891
943.0165,0.073182
944.8801,0.074379
946.7438,0.075221
948.6075,0.075593
950.4711,0.075508
952.3348,0.075478
954.1985,0.075849
956.0622,0.076739
957.9258,0.078012
959.7895,0.079775
961.6532,0.082088
963.5168,0.084884
965.3805,0.087611
967.2442,0.089538
969.1078,0.090448
970.9715,0.090585
972.8352,0.090498
974.6988,0.090691
976.5625,0.091396
978.4262,0.092786
980.2899,0.094684
982.1535,0.096659
984.0172,0.098520
985.8809,0.100548
987.7445,0.102721
989.6082,0.104748
991.4719,0.106788
993.3355,0.109093
995.1992,0.111502
997.0629,0.113778
998.9265,0.115671
1000.7902,0.117165
1002.6539,0.118608
1004.5175,0.120373
1006.3812,0.122404
1008.2449,0.124882
1010.1086,0.127888
1011.9722,0.131347
1013.8359,0.135051
1015.6996,0.138818
1017.5632,0.142280
1019.4269,0.145231
1021.2906,0.147608
1023.1542,0.149597
1025.0179,0.151221
1026.8816,0.152627
1028.7452,0.153860
1030.6089,0.154852
1032.4726,0.155273
1034.3362,0.155170
1036.1999,0.154682
1038.0636,0.153918
1039.9273,0.152816
1041.7909,0.151696
1043.6546,0.150621
1045.5183,0.149666
1047.3819,0.148957
1049.2456,0.148577
1051.1093,0.148439
1052.9729,0.148623
1054.8366,0.148941
1056.7003,0.149374
1058.5639,0.149847
1060.4276,0.150224
1062.2913,0.150446
1064.1550,0.150582
1066.0186,0.150768
1067.8823,0.151051
1069.7460,0.150931
1071.6096,0.150256
1073.4733,0.149081
1075.3370,0.147418
1077.2006,0.145071
1079.0643,0.142089
1080.9280,0.138619
1082.7916,0.134833
1084.6553,0.130737
1086.5190,0.126761
1088.3826,0.123278
1090.2463,0.120384
1092.1100,0.117809
1093.9737,0.115558
1095.8373,0.113674
1097.7010,0.111947
1099.5647,0.110390
1101.4283,0.109164
1103.2920,0.108163
1105.1557,0.107393
1107.0193,0.106860
1108.8830,0.106478
1110.7467,0.106078
1112.6103,0.105630
1114.4740,0.104951
1116.3377,0.104011
1118.2014,0.102954
1120.0650,0.101916
1121.9287,0.100955
1123.7924,0.099916
1125.6560,0.098735
1127.5197,0.097604
1129.3834,0.096506
1131.2470,0.095192
1133.1107,0.093622
1134.9744,0.091953
1136.8380,0.090261
1138.7017,0.088590
1140.5654,0.087101
1142.4290,0.085935
1144.2927,0.085130
1146.1564,0.084711
1148.0201,0.084595
1149.8837,0.084596
1151.7474,0.084547
1153.6111,0.084372
1155.4747,0.084156
1157.3384,0.083887
1159.2021,0.083370
1161.0657,0.082683
1162.9294,0.081855
1164.7931,0.080724
1166.6567,0.079297
1168.5204,0.077586
1170.3841,0.075414
1172.2477,0.072881
1174.1114,0.070168
1175.9751,0.067559
1177.8388,0.065391
1179.7024,0.063903
1181.5661,0.062872
1183.4298,0.062316
1185.2934,0.062347
1187.1571,0.062744
1189.0208,0.063233
1190.8844,0.063857
1192.7481,0.064725
1194.6118,0.065784
1196.4754,0.066998
1198.3391,0.068425
1200.2028,0.069954
1202.0665,0.071320
1203.9301,0.072551
1205.7938,0.073687
1207.6575,0.074575
1209.5211,0.075295
1211.3848,0.076017
1213.2485,0.076734
1215.1121,0.077468
1216.9758,0.078406
1218.8395,0.079443
1220.7031,0.080578
1222.5668,0.081749
1224.4305,0.082890
1226.2941,0.083829
1228.1578,0.084574
1230.0215,0.085388
1231.8852,0.086109
1233.7488,0.086510
1235.6125,0.086748
1237.4762,0.086878
1239.3398,0.086819
1241.2035,0.086567
1243.0672,0.086220
1244.9308,0.085668
1246.7945,0.084985
1248.6582,0.084209
1250.5218,0.083289
1252.3855,0.082432
1254.2492,0.081581
1256.1129,0.080731
1257.9765,0.079895
1259.8402,0.079159
1261.7039,0.078625
1263.5675,0.078051
1265.4312,0.077492
1267.2949,0.077031
1269.1585,0.076515
1271.0222,0.075990
1272.8859,0.075578
1274.7495,0.075226
1276.6132,0.074900
1278.4769,0.074659
1280.3405,0.074514
1282.2042,0.074234
1284.0679,0.073974
1285.9316,0.073963
1287.7952,0.074156
1289.6589,0.074236
1291.5226,0.074260
1293.3862,0.074560
1295.2499,0.075119
1297.1136,0.075622
1298.9772,0.076122
1300.8409,0.076756
1302.7046,0.077497
1304.5682,0.078240
1306.4319,0.078804
1308.2956,0.079351
1310.1592,0.079931
1312.0229,0.080432
1313.8866,0.080781
1315.7503,0.080776
1317.6139,0.080722
1319.4776,0.080625
1321.3413,0.080113
1323.2049,0.079527
1325.0686,0.079053
1326.9323,0.078388
1328.7959,0.077816
1330.6596,0.077479
1332.5233,0.077193
1334.3869,0.076960
1336.2506,0.076945
1338.1143,0.077582
1339.9780,0.078554
1341.8416,0.078561
1343.7053,0.077990
1345.5690,0.077703
1347.4326,0.077694
1349.2963,0.077735
1351.1600,0.077801
1353.0236,0.077900
1354.8873,0.078061
1356.7510,0.078108
1358.6146,0.078235
1360.4783,0.079277
1362.3420,0.081646
1364.2056,0.083380
1366.0693,0.084031
1367.9330,0.085356
1369.7967,0.086904
1371.6603,0.088142
1373.5240,0.090154
1375.3877,0.091995
1377.2513,0.092399
1379.1150,0.092568
1380.9787,0.092403
1382.8423,0.091899
1384.7060,0.091761
1386.5697,0.092683
1388.4333,0.093348
1390.2970,0.092356
1392.1607,0.091628
1394.0244,0.092618
1395.8880,0.094020
1397.7517,0.094195
1399.6154,0.094407
1401.4790,0.093632
1403.3427,0.092901
1405.2064,0.093086
1407.0700,0.092444
1408.9337,0.091332
1410.7974,0.090733
1412.6610,0.089739
1414.5247,0.088355
1416.3884,0.087939
1418.2520,0.089570
1420.1157,0.090644
1421.9794,0.089010
1423.8431,0.088261
1425.7067,0.088252
1427.5704,0.088218
1429.4341,0.089247
1431.2977,0.089945
1433.1614,0.090064
1435.0251,0.091869
1436.8887,0.095908
1438.7524,0.096583
1440.6161,0.095288
1442.4797,0.095233
1444.3434,0.095521
1446.2071,0.095852
1448.0707,0.096471
1449.9344,0.095489
1451.7981,0.093379
1453.6618,0.091921
1455.5254,0.092717
1457.3891,0.095278
1459.2528,0.092149
1461.1164,0.087443
1462.9801,0.085240
1464.8438,0.085021
1466.7074,0.083181
1468.5711,0.079993
1470.4348,0.078339
1472.2984,0.079334
1474.1621,0.079060
1476.0258,0.076628
1477.8895,0.074528
1479.7531,0.073202
1481.6168,0.072924
1483.4805,0.072719
1485.3441,0.072819
1487.2078,0.075127
1489.0715,0.079283
1490.9351,0.082074
1492.7988,0.081822
1494.6625,0.083046
1496.5261,0.088518
1498.3898,0.093137
1500.2535,0.093956
1502.1171,0.093973
1503.9808,0.095285
1505.8445,0.103104
1507.7082,0.115637
1509.5718,0.115781
1511.4355,0.115320
1513.2992,0.117339
1515.1628,0.119271
1517.0265,0.122129
1518.8902,0.123910
1520.7538,0.125811
1522.6175,0.128953
1524.4812,0.128761
1526.3448,0.129072
1528.2085,0.129999
1530.0722,0.130268
1531.9359,0.130871
1533.7995,0.132436
1535.6632,0.132028
1537.5269,0.131031
1539.3905,0.134099
1541.2542,0.137325
1543.1179,0.134559
1544.9815,0.131704
1546.8452,0.129051
1548.7089,0.126577
1550.5725,0.124259
1552.4362,0.121188
1554.2999,0.118346
1556.1635,0.116943
1558.0272,0.117699
1559.8909,0.116967
1561.7546,0.110627
1563.6182,0.106191
1565.4819,0.103771
1567.3456,0.101869
1569.2092,0.100356
1571.0729,0.098429
1572.9366,0.095959
1574.8002,0.095180
1576.6639,0.096036
1578.5276,0.094520
1580.3912,0.092837
1582.2549,0.092770
1584.1186,0.093210
1585.9822,0.093978
1587.8459,0.095060
1589.7096,0.096486
1591.5733,0.098415
1593.4369,0.100739
1595.3006,0.103435
1597.1643,0.105999
1599.0279,0.108413
1600.8916,0.111521
1602.7553,0.115227
1604.6189,0.119031
1606.4826,0.122989
1608.3463,0.127080
1610.2099,0.130917
1612.0736,0.134557
1613.9373,0.138032
1615.8010,0.142665
1617.6646,0.148336
1619.5283,0.150156
1621.3920,0.151419
1623.2556,0.155112
1625.1193,0.158103
1626.9830,0.158862
1628.8466,0.159489
1630.7103,0.159775
1632.5740,0.159868
1634.4376,0.160575
1636.3013,0.160611
1638.1650,0.157641
1640.0286,0.154224
1641.8923,0.151901
1643.7560,0.150137
1645.6197,0.148167
1647.4833,0.145320
1649.3470,0.142450
1651.2107,0.140279
1653.0743,0.138018
1654.9380,0.132739
1656.8017,0.127696
1658.6653,0.123735
1660.5290,0.119958
1662.3927,0.115787
1664.2563,0.111548
1666.1200,0.107591
1667.9837,0.103746
1669.8474,0.099598
1671.7110,0.095224
1673.5747,0.091030
1675.4384,0.086447
1677.3020,0.081534
1679.1657,0.077404
1681.0294,0.073614
1682.8930,0.069969
1684.7567,0.065446
1686.6204,0.060454
1688.4840,0.056016
1690.3477,0.051506
1692.2114,0.047306
1694.0750,0.043630
1695.9387,0.039723
1697.8024,0.035623
1699.6661,0.032204
1701.5297,0.028729
1703.3934,0.026243
1705.2571,0.023894
1707.1207,0.021711
1708.9844,0.020106
1710.8481,0.018758
1712.7117,0.017802
1714.5754,0.017217
1716.4391,0.016573
1718.3027,0.015936
1720.1664,0.015333
1722.0301,0.014455
1723.8937,0.013589
1725.7574,0.013077
1727.6211,0.012716
1729.4848,0.012415
1731.3484,0.012092
1733.2121,0.011708
1735.0758,0.011433
1736.9394,0.011040
1738.8031,0.010450
1740.6668,0.010105
1742.5304,0.009870
1744.3941,0.009467
1746.2578,0.009176
1748.1214,0.009087
1749.9851,0.008871
1751.8488,0.008539
1753.7125,0.008325
1755.5761,0.007984
1757.4398,0.007682
1759.3035,0.007637
1761.1671,0.007403
1763.0308,0.007176
1764.8945,0.007220
1766.7581,0.007184
1768.6218,0.007077
1770.4855,0.007137
1772.3491,0.007193
1774.2128,0.007073
1776.0765,0.006722
1777.9401,0.006587
1779.8038,0.006751
1781.6675,0.006865
1783.5312,0.006722
1785.3948,0.006545
1787.2585,0.006471
1789.1222,0.006510
1790.9858,0.006621
1792.8495,0.006571
1794.7132,0.006413
1796.5768,0.006351
1798.4405,0.006232
1800.3042,0.006061
1802.1678,0.005979
1804.0315,0.005932
1805.8952,0.005980
1807.7589,0.005992
1809.6225,0.005730
1811.4862,0.005603
1813.3499,0.005571
1815.2135,0.005558
1817.0772,0.005650
1818.9409,0.005687
1820.8045,0.005658
1822.6682,0.005581
1824.5319,0.005459
1826.3955,0.005379
1828.2592,0.005442
1830.1229,0.005668
1831.9865,0.005470
1833.8502,0.005114
1835.7139,0.005024
1837.5776,0.004911
1839.4412,0.004781
1841.3049,0.004914
1843.1686,0.005311
1845.0322,0.005515
1846.8959,0.005157
1848.7596,0.004835
1850.6232,0.004693
1852.4869,0.004682
1854.3506,0.004569
1856.2142,0.004770
1858.0779,0.005045
1859.9416,0.004775
1861.8052,0.004584
1863.6689,0.004799
1865.5326,0.004877
1867.3963,0.004895
1869.2599,0.004808
1871.1236,0.004678
1872.9873,0.004690
1874.8509,0.004647
1876.7146,0.004631
1878.5783,0.004666
1880.4419,0.004616
1882.3056,0.004786
1884.1693,0.004845
1886.0329,0.004629
1887.8966,0.004584
1889.7603,0.004693
1891.6240,0.004656
1893.4876,0.004645
1895.3513,0.004703
1897.2150,0.004803
1899.0786,0.004825
1900.9423,0.004567
1902.8060,0.003935
1904.6696,0.003756
1906.5333,0.004354
1908.3970,0.004722
1910.2606,0.004439
1912.1243,0.004315
1913.9880,0.004418
1915.8516,0.004483
1917.7153,0.004159
1919.5790,0.003796
1921.4427,0.003725
1923.3063,0.003719
1925.1700,0.003822
1927.0337,0.004057
1928.8973,0.004103
1930.7610,0.004071
1932.6247,0.003553
1934.4883,0.003476
1936.3520,0.003857
1938.2157,0.003591
1940.0793,0.003268
1941.9430,0.003574
1943.8067,0.003200
1945.6704,0.002678
1947.5340,0.002467
1949.3977,0.002373
1951.2614,0.002533
1953.1250,0.002303
1954.9887,0.001843
1956.8524,0.001720
1958.7160,0.002061
1960.5797,0.002522
1962.4434,0.002406
1964.3070,0.002286
1966.1707,0.002228
1968.0344,0.002066
1969.8980,0.001402
1971.7617,0.000902
1973.6254,0.001440
1975.4891,0.002630
1977.3527,0.003254
1979.2164,0.002874
1981.0801,0.002241
1982.9437,0.002406
1984.8074,0.002241
1986.6711,0.002022
1988.5347,0.002576
1990.3984,0.002524
1992.2621,0.001653
1994.1257,0.001846
1995.9894,0.001815
1997.8531,0.002029
1999.7167,0.002670
2001.5804,0.002398
2003.4441,0.001908
2005.3078,0.002115
2007.1714,0.002136
2009.0351,0.002183
2010.8988,0.002155
2012.7624,0.001920
2014.6261,0.001669
2016.4898,0.001491
2018.3534,0.001509
2020.2171,0.002246
2022.0808,0.002685
2023.9444,0.002817
2025.8081,0.003074
2027.6718,0.003887
2029.5355,0.005595
2031.3991,0.006647
2033.2628,0.006358
2035.1265,0.007192
2036.9901,0.009368
2038.8538,0.010813
2040.7175,0.011375
2042.5811,0.012544
2044.4448,0.013945
2046.3085,0.015730
2048.1721,0.017131
2050.0358,0.018296
2051.8995,0.019125
2053.7631,0.019919
2055.6268,0.020501
2057.4905,0.020520
2059.3542,0.020157
2061.2178,0.019546
2063.0815,0.018860
2064.9452,0.019301
2066.8088,0.019757
2068.6725,0.019245
2070.5362,0.018384
2072.3998,0.017204
2074.2635,0.015844
2076.1272,0.015008
2077.9908,0.013960
2079.8545,0.012813
2081.7182,0.012080
2083.5819,0.011355
2085.4455,0.010296
2087.3092,0.009150
2089.1729,0.008250
2091.0365,0.007577
2092.9002,0.006796
2094.7639,0.006262
2096.6275,0.006052
2098.4912,0.006021
2100.3549,0.005971
2102.2185,0.005971
2104.0822,0.005398
2105.9459,0.005152
2107.8095,0.005855
2109.6732,0.006212
2111.5369,0.005891
2113.4006,0.005364
2115.2642,0.005198
2117.1279,0.005492
2118.9916,0.005478
2120.8552,0.005455
2122.7189,0.005200
2124.5826,0.004774
2126.4462,0.004421
2128.3099,0.004368
2130.1736,0.003610
2132.0372,0.003235
2133.9009,0.003690
2135.7646,0.003823
2137.6282,0.002828
2139.4919,0.001476
2141.3556,0.000781
2143.2193,0.001303
2145.0829,0.001824
2146.9466,0.001352
2148.8103,0.000411
2150.6739,0.000141
2152.5376,-0.000174
2154.4013,-0.000745
2156.2649,-0.000564
2158.1286,0.000683
2159.9923,0.000231
2161.8559,-0.000589
2163.7196,0.001420
2165.5833,0.002778
2167.4470,0.002358
2169.3106,0.003065
2171.1743,0.002182
2173.0380,0.001209
2174.9016,0.001220
2176.7653,0.000995
2178.6290,0.001073
2180.4926,0.001674
2182.3563,0.001767
2184.2200,0.002455
2186.0836,0.003475
2187.9473,0.003797
2189.8110,0.003459
2191.6746,0.002791
2193.5383,0.002740
2195.4020,0.003601
2197.2657,0.004128
2199.1293,0.003355
2200.9930,0.002993
2202.8567,0.003727
2204.7203,0.003544
2206.5840,0.003354
2208.4477,0.003935
2210.3113,0.004179
2212.1750,0.004213
2214.0387,0.003876
2215.9023,0.003386
2217.7660,0.004530
2219.6297,0.004865
2221.4934,0.004466
2223.3570,0.005075
2225.2207,0.005253
2227.0844,0.004563
2228.9480,0.004388
2230.8117,0.004852
2232.6754,0.005247
2234.5390,0.004431
2236.4027,0.004172
2238.2664,0.004679
2240.1300,0.004773
2241.9937,0.004789
2243.8574,0.004975
2245.7210,0.004973
2247.5847,0.005313
2249.4484,0.005402
2251.3121,0.005196
2253.1757,0.005508
2255.0394,0.006116
2256.9031,0.006289
2258.7667,0.006122
2260.6304,0.005740
2262.4941,0.005893
2264.3577,0.006515
2266.2214,0.006626
2268.0851,0.006054
2269.9487,0.005896
2271.8124,0.006484
2273.6761,0.007235
2275.5397,0.007108
2277.4034,0.006912
2279.2671,0.007390
2281.1308,0.007905
2282.9944,0.007978
2284.8581,0.007853
2286.7218,0.007816
2288.5854,0.007939
2290.4491,0.008072
2292.3128,0.008106
2294.1764,0.007791
2296.0401,0.008060
2297.9038,0.008314
2299.7674,0.008132
2301.6311,0.007863
2303.4948,0.007535
2305.3585,0.007421
2307.2221,0.007568
2309.0858,0.007735
2310.9495,0.007849
2312.8131,0.007589
2314.6768,0.007659
2316.5405,0.007956
2318.4041,0.007802
2320.2678,0.007927
2322.1315,0.008268
2323.9951,0.008033
2325.8588,0.007746
2327.7225,0.007246
2329.5861,0.006787
2331.4498,0.006825
2333.3135,0.006796
2335.1772,0.006962
2337.0408,0.007023
2338.9045,0.006690
2340.7682,0.007097
2342.6318,0.007681
2344.4955,0.007475
2346.3592,0.007224
2348.2228,0.006942
2350.0865,0.006963
2351.9502,0.006981
2353.8138,0.006740
2355.6775,0.006595
2357.5412,0.006328
2359.4049,0.006061
2361.2685,0.005856
2363.1322,0.006433
2364.9959,0.007050
2366.8595,0.007245
2368.7232,0.007589
2370.5869,0.008036
2372.4505,0.008110
2374.3142,0.008095
2376.1779,0.008086
2378.0415,0.008018
2379.9052,0.008047
2381.7689,0.008134
2383.6325,0.008034
2385.4962,0.008041
2387.3599,0.008049
2389.2236,0.007989
2391.0872,0.008003
2392.9509,0.008061
2394.8146,0.007992
2396.6782,0.008064
2398.5419,0.008340
2400.4056,0.008346
2402.2692,0.008238
2404.1329,0.008105
2405.9966,0.008157
2407.8602,0.008411
2409.7239,0.008287
2411.5876,0.007990
2413.4512,0.008053
2415.3149,0.008589
2417.1786,0.008589
2419.0423,0.008436
2420.9059,0.008433
2422.7696,0.008228
2424.6333,0.008347
2426.4969,0.008729
2428.3606,0.008622
2430.2243,0.008325
2432.0879,0.008373
2433.9516,0.008350
2435.8153,0.008310
2437.6789,0.008534
2439.5426,0.008859
2441.4063,0.008960
2443.2700,0.008805
2445.1336,0.008812
2446.9973,0.008785
2448.8610,0.008830
2450.7246,0.009194
2452.5883,0.009295
2454.4520,0.008947
2456.3156,0.008980
2458.1793,0.009023
2460.0430,0.008927
2461.9066,0.008866
2463.7703,0.008948
2465.6340,0.009094
2467.4976,0.009220
2469.3613,0.009170
2471.2250,0.009106
2473.0887,0.009353
2474.9523,0.009397
2476.8160,0.009121
2478.6797,0.009437
2480.5433,0.009626
2482.4070,0.009640
2484.2707,0.009734
2486.1343,0.009807
2487.9980,0.009715
2489.8617,0.009652
2491.7253,0.009742
2493.5890,0.010036
2495.4527,0.010091
2497.3164,0.009825
2499.1800,0.009490
2501.0437,0.009598
2502.9074,0.009767
2504.7710,0.009963
2506.6347,0.010389
2508.4984,0.010602
2510.3620,0.010456
2512.2257,0.010386
2514.0894,0.009976
2515.9530,0.010098
2517.8167,0.010313
2519.6804,0.010095
2521.5440,0.010150
2523.4077,0.010456
2525.2714,0.010619
2527.1351,0.010625
2528.9987,0.010611
2530.8624,0.010662
2532.7261,0.010685
2534.5897,0.010667
2536.4534,0.010737
2538.3171,0.010930
2540.1807,0.010921
2542.0444,0.011085
2543.9081,0.010922
2545.7717,0.010743
2547.6354,0.010976
2549.4991,0.010911
2551.3627,0.010772
2553.2264,0.010972
2555.0901,0.011242
2556.9538,0.011559
2558.8174,0.011867
2560.6811,0.012053
2562.5448,0.011791
2564.4084,0.011640
2566.2721,0.011514
2568.1358,0.011404
2569.9994,0.011773
2571.8631,0.012268
2573.7268,0.012169
2575.5904,0.011978
2577.4541,0.012062
2579.3178,0.012345
2581.1815,0.012434
2583.0451,0.012100
2584.9088,0.012234
2586.7725,0.012544
2588.6361,0.012584
2590.4998,0.012823
2592.3635,0.013180
2594.2271,0.013348
2596.0908,0.013166
2597.9545,0.013146
2599.8181,0.013125
2601.6818,0.013345
2603.5455,0.013884
2605.4091,0.014168
2607.2728,0.013900
2609.1365,0.013872
2611.0002,0.014140
2612.8638,0.014163
2614.7275,0.014180
2616.5912,0.014694
2618.4548,0.015048
2620.3185,0.015043
2622.1822,0.015197
2624.0458,0.015375
2625.9095,0.015278
