Wavenumber,Intensity
650.4205,0.054160
652.2841,0.058530
654.1478,0.056874
656.0115,0.053346
657.8751,0.055370
659.7388,0.055938
661.6025,0.053399
663.4661,0.052750
665.3298,0.053131
667.1935,0.052444
669.0571,0.052677
670.9208,0.052382
672.7845,0.051952
674.6481,0.052054
676.5118,0.052930
678.3755,0.052857
680.2392,0.051746
682.1028,0.050780
683.9665,0.050792
685.8302,0.050202
687.6938,0.049602
689.5575,0.049156
691.4212,0.048924
693.2848,0.048026
695.1485,0.048505
697.0122,0.048613
698.8758,0.048120
700.7395,0.047356
702.6032,0.047115
704.4669,0.046559
706.3305,0.045629
708.1942,0.044589
710.0579,0.044275
711.9215,0.044194
713.7852,0.044407
715.6489,0.044509
717.5125,0.043814
719.3762,0.043063
721.2399,0.042743
723.1035,0.042623
724.9672,0.042370
726.8309,0.041550
728.6945,0.041054
730.5582,0.040789
732.4219,0.040767
734.2856,0.040699
736.1492,0.039977
738.0129,0.039522
739.8766,0.039764
741.7402,0.039773
743.6039,0.039511
745.4676,0.039300
747.3312,0.038938
749.1949,0.038373
751.0586,0.038110
752.9222,0.037852
754.7859,0.037667
756.6496,0.037743
758.5132,0.037523
760.3769,0.037105
762.2406,0.037000
764.1043,0.037098
765.9679,0.036862
767.8316,0.036550
769.6953,0.036707
771.5589,0.036615
773.4226,0.035928
775.2863,0.035295
777.1499,0.035222
779.0136,0.035067
780.8773,0.034853
782.7409,0.034480
784.6046,0.034085
786.4683,0.033763
788.3320,0.033654
790.1956,0.033183
792.0593,0.032634
793.9230,0.032320
795.7866,0.032158
797.6503,0.031882
799.5140,0.031671
801.3776,0.031756
803.2413,0.031875
805.1050,0.031571
806.9686,0.031309
808.8323,0.031200
810.6960,0.031180
812.5596,0.031219
814.4233,0.030955
816.2870,0.031006
818.1507,0.030883
820.0143,0.030763
821.8780,0.030484
823.7417,0.029781
825.6053,0.029082
827.4690,0.028487
829.3327,0.028083
831.1963,0.027976
833.0600,0.027656
834.9237,0.027103
836.7873,0.026833
838.6510,0.026466
840.5147,0.025960
842.3784,0.025742
844.2420,0.025873
846.1057,0.025850
847.9694,0.025394
849.8330,0.025366
851.6967,0.025546
853.5604,0.025404
855.4240,0.025292
857.2877,0.025416
859.1514,0.025564
861.0150,0.025817
862.8787,0.025919
864.7424,0.025963
866.6060,0.026327
868.4697,0.026570
870.3334,0.026533
872.1971,0.026518
874.0607,0.026452
875.9244,0.026359
877.7881,0.026438
879.6517,0.026407
881.5154,0.026129
883.3791,0.025825
885.2427,0.025731
887.1064,0.025762
888.9701,0.025707
890.8337,0.025717
892.6974,0.025718
894.5611,0.025633
896.4247,0.025709
898.2884,0.025666
900.1521,0.025400
902.0158,0.025114
903.8794,0.024981
905.7431,0.024977
907.6068,0.024976
909.4704,0.024988
911.3341,0.025143
913.1978,0.025431
915.0614,0.025641
916.9251,0.025702
918.7888,0.025794
920.6524,0.026042
922.5161,0.026326
924.3798,0.026344
926.2435,0.026312
928.1071,0.026358
929.9708,0.026416
931.8345,0.026545
933.6981,0.026650
935.5618,0.027037
937.4255,0.027535
939.2891,0.027730
941.1528,0.028031
943.0165,0.028612
944.8801,0.029161
946.7438,0.029474
948.6075,0.029759
950.4711,0.030082
952.3348,0.030288
954.1985,0.030511
956.0622,0.030959
957.9258,0.031670
959.7895,0.032571
961.6532,0.033639
963.5168,0.034640
965.3805,0.035522
967.2442,0.036191
969.1078,0.036529
970.9715,0.036693
972.8352,0.036800
974.6988,0.037145
976.5625,0.037685
978.4262,0.038276
980.2899,0.038907
982.1535,0.039745
984.0172,0.040556
985.8809,0.041287
987.7445,0.042019
989.6082,0.042816
991.4719,0.043597
993.3355,0.044233
995.1992,0.044889
997.0629,0.045676
998.9265,0.046344
1000.7902,0.046771
1002.6539,0.047240
1004.5175,0.047974
1006.3812,0.048728
1008.2449,0.049619
1010.1086,0.050829
1011.9722,0.052097
1013.8359,0.053352
1015.6996,0.054644
1017.5632,0.055754
1019.4269,0.056685
1021.2906,0.057356
1023.1542,0.057866
1025.0179,0.058344
1026.8816,0.058843
1028.7452,0.059354
1030.6089,0.059787
1032.4726,0.060113
1034.3362,0.060370
1036.1999,0.060465
1038.0636,0.060433
1039.9273,0.060133
1041.7909,0.059877
1043.6546,0.059800
1045.5183,0.059571
1047.3819,0.059449
1049.2456,0.059529
1051.1093,0.059471
1052.9729,0.059477
1054.8366,0.059707
1056.7003,0.059841
1058.5639,0.059868
1060.4276,0.059853
1062.2913,0.059835
1064.1550,0.059966
1066.0186,0.060069
1067.8823,0.060026
1069.7460,0.059899
1071.6096,0.059763
1073.4733,0.059517
1075.3370,0.059053
1077.2006,0.058167
1079.0643,0.057061
1080.9280,0.055880
1082.7916,0.054573
1084.6553,0.053203
1086.5190,0.051750
1088.3826,0.050347
1090.2463,0.049198
1092.1100,0.048143
1093.9737,0.047150
1095.8373,0.046367
1097.7010,0.045707
1099.5647,0.044941
1101.4283,0.044278
1103.2920,0.043663
1105.1557,0.043127
1107.0193,0.042780
1108.8830,0.042508
1110.7467,0.042153
1112.6103,0.041805
1114.4740,0.041423
1116.3377,0.040991
1118.2014,0.040507
1120.0650,0.039946
1121.9287,0.039430
1123.7924,0.038983
1125.6560,0.038325
1127.5197,0.037583
1129.3834,0.036965
1131.2470,0.036411
1133.1107,0.035719
1134.9744,0.034928
1136.8380,0.034218
1138.7017,0.033581
1140.5654,0.033062
1142.4290,0.032656
1144.2927,0.032321
1146.1564,0.032026
1148.0201,0.031898
1149.8837,0.031901
1151.7474,0.031819
1153.6111,0.031694
1155.4747,0.031600
1157.3384,0.031433
1159.2021,0.031229
1161.0657,0.030974
1162.9294,0.030583
1164.7931,0.030128
1166.6567,0.029539
1168.5204,0.028833
1170.3841,0.028014
1172.2477,0.027119
1174.1114,0.026150
1175.9751,0.025178
1177.8388,0.024307
1179.7024,0.023689
1181.5661,0.023309
1183.4298,0.023116
1185.2934,0.023112
1187.1571,0.023223
1189.0208,0.023476
1190.8844,0.023820
1192.7481,0.024172
1194.6118,0.024639
1196.4754,0.025238
1198.3391,0.025877
1200.2028,0.026455
1202.0665,0.027018
1203.9301,0.027608
1205.7938,0.028130
1207.6575,0.028488
1209.5211,0.028811
1211.3848,0.029201
1213.2485,0.029539
1215.1121,0.029826
1216.9758,0.030220
1218.8395,0.030744
1220.7031,0.031211
1222.5668,0.031578
1224.4305,0.031974
1226.2941,0.032357
1228.1578,0.032701
1230.0215,0.032919
1231.8852,0.033115
1233.7488,0.033333
1235.6125,0.033413
1237.4762,0.033367
1239.3398,0.033311
1241.2035,0.033234
1243.0672,0.033088
1244.9308,0.032869
1246.7945,0.032608
1248.6582,0.032261
1250.5218,0.031890
1252.3855,0.031530
1254.2492,0.031221
1256.1129,0.030975
1257.9765,0.030679
1259.8402,0.030436
1261.7039,0.030232
1263.5675,0.029982
1265.4312,0.029747
1267.2949,0.029494
1269.1585,0.029283
1271.0222,0.029200
1272.8859,0.029077
1274.7495,0.028816
1276.6132,0.028708
1278.4769,0.028712
1280.3405,0.028528
1282.2042,0.028349
1284.0679,0.028397
1285.9316,0.028431
1287.7952,0.028518
1289.6589,0.028610
1291.5226,0.028646
1293.3862,0.028781
1295.2499,0.028985
1297.1136,0.029170
1298.9772,0.029374
1300.8409,0.029596
1302.7046,0.029763
1304.5682,0.029925
1306.4319,0.030073
1308.2956,0.030331
1310.1592,0.030543
1312.0229,0.030624
1313.8866,0.030671
1315.7503,0.030565
1317.6139,0.030416
1319.4776,0.030289
1321.3413,0.030072
1323.2049,0.029809
1325.0686,0.029646
1326.9323,0.029472
1328.7959,0.029327
1330.6596,0.029246
1332.5233,0.029187
1334.3869,0.029093
1336.2506,0.029015
1338.1143,0.029201
1339.9780,0.029573
1341.8416,0.029574
1343.7053,0.029483
1345.5690,0.029414
1347.4326,0.029303
1349.2963,0.029286
1351.1600,0.029280
1353.0236,0.029261
1354.8873,0.029323
1356.7510,0.029471
1358.6146,0.029621
1360.4783,0.030006
1362.3420,0.031023
1364.2056,0.031880
1366.0693,0.032191
1367.9330,0.032786
1369.7967,0.033344
1371.6603,0.033658
1373.5240,0.034503
1375.3877,0.035344
1377.2513,0.035492
1379.1150,0.035579
1380.9787,0.035622
1382.8423,0.035672
1384.7060,0.035605
1386.5697,0.035977
1388.4333,0.036324
1390.2970,0.035914
1392.1607,0.035654
1394.0244,0.036167
1395.8880,0.036848
1397.7517,0.036875
1399.6154,0.037096
1401.4790,0.036770
1403.3427,0.036357
1405.2064,0.036449
1407.0700,0.036108
1408.9337,0.035529
1410.7974,0.035194
1412.6610,0.034579
1414.5247,0.033782
1416.3884,0.033374
1418.2520,0.033917
1420.1157,0.034243
1421.9794,0.033335
1423.8431,0.033025
1425.7067,0.032968
1427.5704,0.032758
1429.4341,0.032965
1431.2977,0.033155
1433.1614,0.033108
1435.0251,0.033679
1436.8887,0.035432
1438.7524,0.035532
1440.6161,0.034895
1442.4797,0.034793
1444.3434,0.034655
1446.2071,0.034614
1448.0707,0.035020
1449.9344,0.034728
1451.7981,0.033776
1453.6618,0.032895
1455.5254,0.032923
1457.3891,0.034281
1459.2528,0.033226
1461.1164,0.031442
1462.9801,0.030595
1464.8438,0.030679
1466.7074,0.030156
1468.5711,0.028995
1470.4348,0.028111
1472.2984,0.028446
1474.1621,0.028756
1476.0258,0.028188
1477.8895,0.027651
1479.7531,0.027480
1481.6168,0.027623
1483.4805,0.027605
1485.3441,0.027829
1487.2078,0.029050
1489.0715,0.030916
1490.9351,0.032282
1492.7988,0.032262
1494.6625,0.032741
1496.5261,0.034961
1498.3898,0.036828
1500.2535,0.037283
1502.1171,0.037093
1503.9808,0.037190
1505.8445,0.040281
1507.7082,0.045782
1509.5718,0.045266
1511.4355,0.044732
1513.2992,0.044986
1515.1628,0.045182
1517.0265,0.046433
1518.8902,0.046851
1520.7538,0.047572
1522.6175,0.049355
1524.4812,0.049207
1526.3448,0.049530
1528.2085,0.049800
1530.0722,0.049410
1531.9359,0.049389
1533.7995,0.050507
1535.6632,0.049894
1537.5269,0.048636
1539.3905,0.049941
1541.2542,0.052316
1543.1179,0.051458
1544.9815,0.050565
1546.8452,0.049279
1548.7089,0.048039
1550.5725,0.047428
1552.4362,0.046219
1554.2999,0.044918
1556.1635,0.043849
1558.0272,0.044292
1559.8909,0.045623
1561.7546,0.042987
1563.6182,0.040946
1565.4819,0.039951
1567.3456,0.038904
1569.2092,0.038491
1571.0729,0.037958
1572.9366,0.036436
1574.8002,0.035573
1576.6639,0.035965
1578.5276,0.035507
1580.3912,0.034572
1582.2549,0.034112
1584.1186,0.033968
1585.9822,0.033923
1587.8459,0.033867
1589.7096,0.033991
1591.5733,0.034303
1593.4369,0.034912
1595.3006,0.035809
1597.1643,0.036537
1599.0279,0.037162
1600.8916,0.038049
1602.7553,0.039241
1604.6189,0.040554
1606.4826,0.041791
1608.3463,0.043168
1610.2099,0.044318
1612.0736,0.045300
1613.9373,0.046211
1615.8010,0.048055
1617.6646,0.050540
1619.5283,0.050780
1621.3920,0.051142
1623.2556,0.053022
1625.1193,0.054179
1626.9830,0.054463
1628.8466,0.054937
1630.7103,0.054775
1632.5740,0.054256
1634.4376,0.054844
1636.3013,0.056620
1638.1650,0.055638
1640.0286,0.054005
1641.8923,0.052990
1643.7560,0.051962
1645.6197,0.051443
1647.4833,0.051490
1649.3470,0.049873
1651.2107,0.048128
1653.0743,0.048879
1654.9380,0.048248
1656.8017,0.045600
1658.6653,0.043657
1660.5290,0.042061
1662.3927,0.040605
1664.2563,0.039125
1666.1200,0.037435
1667.9837,0.035827
1669.8474,0.034570
1671.7110,0.033235
1673.5747,0.031364
1675.4384,0.029723
1677.3020,0.028207
1679.1657,0.026614
1681.0294,0.025091
1682.8930,0.023656
1684.7567,0.021979
1686.6204,0.020060
1688.4840,0.018302
1690.3477,0.016794
1692.2114,0.015307
1694.0750,0.013457
1695.9387,0.011441
1697.8024,0.009988
1699.6661,0.008139
1701.5297,0.006453
1703.3934,0.005946
1705.2571,0.004967
1707.1207,0.004042
1708.9844,0.003719
1710.8481,0.003385
1712.7117,0.003139
1714.5754,0.002553
1716.4391,0.001582
1718.3027,0.000649
1720.1664,0.000643
1722.0301,0.000702
1723.8937,0.000602
1725.7574,0.000619
1727.6211,0.000609
1729.4848,0.000459
1731.3484,0.000355
1733.2121,-0.000496
1735.0758,-0.001014
1736.9394,-0.000232
1738.8031,-0.000300
1740.6668,-0.000611
1742.5304,-0.000475
1744.3941,-0.000558
1746.2578,-0.000567
1748.1214,-0.000863
1749.9851,-0.001601
1751.8488,-0.001814
1753.7125,-0.001257
1755.5761,-0.001276
1757.4398,-0.001756
1759.3035,-0.001894
1761.1671,-0.002182
1763.0308,-0.002159
1764.8945,-0.001593
1766.7581,-0.001574
1768.6218,-0.001667
1770.4855,-0.001697
1772.3491,-0.002272
1774.2128,-0.002283
1776.0765,-0.001930
1777.9401,-0.001806
1779.8038,-0.001874
1781.6675,-0.001981
1783.5312,-0.002035
1785.3948,-0.002148
1787.2585,-0.002016
1789.1222,-0.001893
1790.9858,-0.002213
1792.8495,-0.002515
1794.7132,-0.002187
1796.5768,-0.001921
1798.4405,-0.001878
1800.3042,-0.002245
1802.1678,-0.002419
1804.0315,-0.002148
1805.8952,-0.002031
1807.7589,-0.002077
1809.6225,-0.002258
1811.4862,-0.002451
1813.3499,-0.002391
1815.2135,-0.002256
1817.0772,-0.002307
1818.9409,-0.002236
1820.8045,-0.002040
1822.6682,-0.002116
1824.5319,-0.002441
1826.3955,-0.002603
1828.2592,-0.002387
1830.1229,-0.002577
1831.9865,-0.002467
1833.8502,-0.002408
1835.7139,-0.002607
1837.5776,-0.002586
1839.4412,-0.002250
1841.3049,-0.001992
1843.1686,-0.001991
1845.0322,-0.002346
1846.8959,-0.002559
1848.7596,-0.002407
1850.6232,-0.002040
1852.4869,-0.002121
1854.3506,-0.002083
1856.2142,-0.002085
1858.0779,-0.002128
1859.9416,-0.002143
1861.8052,-0.002360
1863.6689,-0.002546
1865.5326,-0.002182
1867.3963,-0.001997
1869.2599,-0.002174
1871.1236,-0.002382
1872.9873,-0.002655
1874.8509,-0.002537
1876.7146,-0.001956
1878.5783,-0.001981
1880.4419,-0.002328
1882.3056,-0.002440
1884.1693,-0.002461
1886.0329,-0.002484
1887.8966,-0.002519
1889.7603,-0.002716
1891.6240,-0.002436
1893.4876,-0.001920
1895.3513,-0.002019
1897.2150,-0.002210
1899.0786,-0.002156
1900.9423,-0.002298
1902.8060,-0.002263
1904.6696,-0.002224
1906.5333,-0.002330
1908.3970,-0.002650
1910.2606,-0.002665
1912.1243,-0.002357
1913.9880,-0.002242
1915.8516,-0.002182
1917.7153,-0.002423
1919.5790,-0.002861
1921.4427,-0.002804
1923.3063,-0.002390
1925.1700,-0.002036
1927.0337,-0.002460
1928.8973,-0.002886
1930.7610,-0.002868
1932.6247,-0.002663
1934.4883,-0.002712
1936.3520,-0.002554
1938.2157,-0.002297
1940.0793,-0.002310
1941.9430,-0.002439
1943.8067,-0.002161
1945.6704,-0.002444
1947.5340,-0.002813
1949.3977,-0.002896
1951.2614,-0.003191
1953.1250,-0.003668
1954.9887,-0.003621
1956.8524,-0.003144
1958.7160,-0.003537
1960.5797,-0.004373
1962.4434,-0.003989
1964.3070,-0.003495
1966.1707,-0.002786
1968.0344,-0.003744
1969.8980,-0.005484
1971.7617,-0.004006
1973.6254,-0.002904
1975.4891,-0.003351
1977.3527,-0.002611
1979.2164,-0.002033
1981.0801,-0.002303
1982.9437,-0.001926
1984.8074,-0.002263
1986.6711,-0.003212
1988.5347,-0.002210
1990.3984,-0.002161
1992.2621,-0.003261
1994.1257,-0.003435
1995.9894,-0.002371
1997.8531,-0.002025
1999.7167,-0.002595
2001.5804,-0.002812
2003.4441,-0.002874
2005.3078,-0.002842
2007.1714,-0.003878
2009.0351,-0.004816
2010.8988,-0.003361
2012.7624,-0.001389
2014.6261,-0.001216
2016.4898,-0.003283
2018.3534,-0.004384
2020.2171,-0.004343
2022.0808,-0.004416
2023.9444,-0.003405
2025.8081,-0.002658
2027.6718,-0.003797
2029.5355,-0.004013
2031.3991,-0.002535
2033.2628,-0.001912
2035.1265,-0.002720
2036.9901,-0.002661
2038.8538,-0.002718
2040.7175,-0.002708
2042.5811,-0.001969
2044.4448,-0.001641
2046.3085,-0.002194
2048.1721,-0.002142
2050.0358,-0.001467
2051.8995,-0.000613
2053.7631,-0.001008
2055.6268,-0.001619
2057.4905,-0.001251
2059.3542,-0.000623
2061.2178,-0.000196
2063.0815,-0.000459
2064.9452,-0.001083
2066.8088,-0.001041
2068.6725,-0.000883
2070.5362,-0.000513
2072.3998,-0.000240
2074.2635,-0.000622
2076.1272,-0.000317
2077.9908,-0.000034
2079.8545,-0.000909
2081.7182,-0.001279
2083.5819,-0.000914
2085.4455,-0.001115
2087.3092,-0.001635
2089.1729,-0.001356
2091.0365,-0.001169
2092.9002,-0.001204
2094.7639,-0.000997
2096.6275,-0.000998
2098.4912,-0.001019
2100.3549,-0.000799
2102.2185,-0.000569
2104.0822,-0.000868
2105.9459,-0.000842
2107.8095,-0.000451
2109.6732,-0.000593
2111.5369,-0.000532
2113.4006,-0.000582
2115.2642,-0.000833
2117.1279,-0.000745
2118.9916,-0.001516
2120.8552,-0.002051
2122.7189,-0.001376
2124.5826,-0.001534
2126.4462,-0.002149
2128.3099,-0.002191
2130.1736,-0.002008
2132.0372,-0.002258
2133.9009,-0.002255
2135.7646,-0.002361
2137.6282,-0.003093
2139.4919,-0.003214
2141.3556,-0.002077
2143.2193,-0.001856
2145.0829,-0.002305
2146.9466,-0.002717
2148.8103,-0.003941
2150.6739,-0.004114
2152.5376,-0.003261
2154.4013,-0.002516
2156.2649,-0.003123
2158.1286,-0.003799
2159.9923,-0.001981
2161.8559,-0.001388
2163.7196,-0.002240
2165.5833,-0.001608
2167.4470,-0.000798
2169.3106,-0.001566
2171.1743,-0.001956
2173.0380,-0.001677
2174.9016,-0.001305
2176.7653,-0.001292
2178.6290,-0.002340
2180.4926,-0.001995
2182.3563,-0.000897
2184.2200,-0.001337
2186.0836,-0.002193
2187.9473,-0.002447
2189.8110,-0.001081
2191.6746,-0.000264
2193.5383,-0.000678
2195.4020,-0.000739
2197.2657,-0.000702
2199.1293,-0.000563
2200.9930,-0.000266
2202.8567,-0.000565
2204.7203,-0.001230
2206.5840,-0.001459
2208.4477,-0.000545
2210.3113,-0.000097
2212.1750,-0.000798
2214.0387,-0.001028
2215.9023,-0.000580
2217.7660,-0.000378
2219.6297,-0.000899
2221.4934,-0.001403
2223.3570,-0.001102
2225.2207,-0.000416
2227.0844,-0.000020
2228.9480,-0.000189
2230.8117,-0.000590
2232.6754,-0.000477
2234.5390,0.000297
2236.4027,0.000034
2238.2664,-0.001147
2240.1300,-0.001381
2241.9937,-0.000869
2243.8574,-0.000607
2245.7210,-0.000297
2247.5847,-0.000135
2249.4484,-0.000375
2251.3121,-0.000264
2253.1757,-0.000101
2255.0394,-0.000084
2256.9031,0.000000
2258.7667,-0.000011
2260.6304,0.000102
2262.4941,-0.000293
2264.3577,-0.000852
2266.2214,-0.000408
2268.0851,0.000460
2269.9487,0.000853
2271.8124,0.000979
2273.6761,0.000832
2275.5397,0.000508
2277.4034,0.000356
2279.2671,0.000267
2281.1308,0.000392
2282.9944,0.000605
2284.8581,0.000672
2286.7218,0.000901
2288.5854,0.001128
2290.4491,0.000720
2292.3128,0.000157
2294.1764,0.000369
2296.0401,0.000688
2297.9038,0.000591
2299.7674,0.000491
2301.6311,0.000240
2303.4948,0.000117
2305.3585,0.000175
2307.2221,0.000260
2309.0858,0.000340
2310.9495,0.000354
2312.8131,0.000428
2314.6768,0.000657
2316.5405,0.000775
2318.4041,0.000495
2320.2678,0.000477
2322.1315,0.000745
2323.9951,0.000646
2325.8588,0.000258
2327.7225,0.000088
2329.5861,-0.000055
2331.4498,-0.000434
2333.3135,-0.000789
2335.1772,-0.000871
2337.0408,-0.000600
2338.9045,-0.000217
2340.7682,-0.000223
2342.6318,-0.000262
2344.4955,-0.000184
2346.3592,-0.000419
2348.2228,-0.000534
2350.0865,-0.000479
2351.9502,-0.000519
2353.8138,-0.000720
2355.6775,-0.000881
2357.5412,-0.001210
2359.4049,-0.001919
2361.2685,-0.001404
2363.1322,-0.000578
2364.9959,-0.000338
2366.8595,-0.000407
2368.7232,-0.000489
2370.5869,0.000151
2372.4505,0.000528
2374.3142,0.000430
2376.1779,0.000371
2378.0415,0.000421
2379.9052,0.000640
2381.7689,0.000575
2383.6325,0.000457
2385.4962,0.000385
2387.3599,0.000281
2389.2236,0.000436
2391.0872,0.000547
2392.9509,0.000480
2394.8146,0.000398
2396.6782,0.000407
2398.5419,0.000528
2400.4056,0.000609
2402.2692,0.000537
2404.1329,0.000281
2405.9966,0.000140
2407.8602,0.000209
2409.7239,0.000575
2411.5876,0.000860
2413.4512,0.000916
2415.3149,0.000749
2417.1786,0.000483
2419.0423,0.000550
2420.9059,0.000774
2422.7696,0.000702
2424.6333,0.000767
2426.4969,0.001015
2428.3606,0.001055
2430.2243,0.001031
2432.0879,0.000737
2433.9516,0.000588
2435.8153,0.000703
2437.6789,0.000746
2439.5426,0.001194
2441.4063,0.001456
2443.2700,0.001144
2445.1336,0.000905
2446.9973,0.000954
2448.8610,0.000892
2450.7246,0.000930
2452.5883,0.001220
2454.4520,0.001377
2456.3156,0.001426
2458.1793,0.001439
2460.0430,0.001323
2461.9066,0.001532
2463.7703,0.001737
2465.6340,0.001500
2467.4976,0.001119
2469.3613,0.001167
2471.2250,0.001363
2473.0887,0.001388
2474.9523,0.001521
2476.8160,0.001583
2478.6797,0.001566
2480.5433,0.001663
2482.4070,0.001489
2484.2707,0.001342
2486.1343,0.001335
2487.9980,0.001200
2489.8617,0.001220
2491.7253,0.001525
2493.5890,0.001599
2495.4527,0.001435
2497.3164,0.001494
2499.1800,0.001538
2501.0437,0.001594
2502.9074,0.001851
2504.7710,0.002000
2506.6347,0.002090
2508.4984,0.001925
2510.3620,0.001473
2512.2257,0.001454
2514.0894,0.001850
2515.9530,0.001954
2517.8167,0.001732
2519.6804,0.001725
2521.5440,0.002047
2523.4077,0.002261
2525.2714,0.002077
2527.1351,0.001815
2528.9987,0.001767
2530.8624,0.001867
2532.7261,0.002091
2534.5897,0.002343
2536.4534,0.002345
2538.3171,0.002292
2540.1807,0.002445
2542.0444,0.002370
2543.9081,0.002144
2545.7717,0.002263
2547.6354,0.002363
2549.4991,0.002147
2551.3627,0.001926
2553.2264,0.002202
2555.0901,0.002848
2556.9538,0.002893
2558.8174,0.002494
2560.6811,0.002339
2562.5448,0.002346
2564.4084,0.002392
2566.2721,0.002380
2568.1358,0.002490
2569.9994,0.002957
2571.8631,0.002993
2573.7268,0.002739
2575.5904,0.002846
2577.4541,0.003064
2579.3178,0.003187
2581.1815,0.003029
2583.0451,0.002894
2584.9088,0.003033
2586.7725,0.003235
2588.6361,0.003147
2590.4998,0.002923
2592.3635,0.003011
2594.2271,0.003066
2596.0908,0.003102
