Wavenumber,Intensity
650.4205,0.054363
652.2841,0.054112
654.1478,0.052543
656.0115,0.051188
657.8751,0.051738
659.7388,0.052629
661.6025,0.052730
663.4661,0.050608
665.3298,0.048042
667.1935,0.047013
669.0571,0.049889
670.9208,0.050082
672.7845,0.049976
674.6481,0.049318
676.5118,0.048376
678.3755,0.049626
680.2392,0.050507
682.1028,0.048845
683.9665,0.047407
685.8302,0.047542
687.6938,0.047024
689.5575,0.045487
691.4212,0.045030
693.2848,0.045515
695.1485,0.046245
697.0122,0.046611
698.8758,0.045325
700.7395,0.044276
702.6032,0.044238
704.4669,0.043841
706.3305,0.043484
708.1942,0.043022
710.0579,0.042812
711.9215,0.042699
713.7852,0.042052
715.6489,0.041325
717.5125,0.040925
719.3762,0.040418
721.2399,0.039898
723.1035,0.039656
724.9672,0.039208
726.8309,0.039135
728.6945,0.039357
730.5582,0.039164
732.4219,0.038746
734.2856,0.038067
736.1492,0.037548
738.0129,0.037527
739.8766,0.037348
741.7402,0.037148
743.6039,0.037330
745.4676,0.037539
747.3312,0.037516
749.1949,0.037113
751.0586,0.036209
752.9222,0.035813
754.7859,0.036209
756.6496,0.036202
758.5132,0.035782
760.3769,0.035455
762.2406,0.035113
764.1043,0.034489
765.9679,0.034184
767.8316,0.034410
769.6953,0.034520
771.5589,0.034185
773.4226,0.033278
775.2863,0.032660
777.1499,0.032679
779.0136,0.032761
780.8773,0.032407
782.7409,0.031764
784.6046,0.031469
786.4683,0.031322
788.3320,0.031007
790.1956,0.030919
792.0593,0.030959
793.9230,0.030785
795.7866,0.030289
797.6503,0.029619
799.5140,0.029277
801.3776,0.029444
803.2413,0.029671
805.1050,0.029599
806.9686,0.029477
808.8323,0.029169
810.6960,0.028882
812.5596,0.029026
814.4233,0.029105
816.2870,0.028962
818.1507,0.028869
820.0143,0.028676
821.8780,0.028066
823.7417,0.027349
825.6053,0.026851
827.4690,0.026690
829.3327,0.026639
831.1963,0.026243
833.0600,0.025607
834.9237,0.024992
836.7873,0.024500
838.6510,0.024285
840.5147,0.024185
842.3784,0.023905
844.2420,0.023575
846.1057,0.023380
847.9694,0.023263
849.8330,0.023138
851.6967,0.023127
853.5604,0.023299
855.4240,0.023302
857.2877,0.023164
859.1514,0.023125
861.0150,0.023244
862.8787,0.023402
864.7424,0.023447
866.6060,0.023582
868.4697,0.023708
870.3334,0.023760
872.1971,0.023789
874.0607,0.023724
875.9244,0.023612
877.7881,0.023613
879.6517,0.023585
881.5154,0.023333
883.3791,0.022894
885.2427,0.022619
887.1064,0.022499
888.9701,0.022272
890.8337,0.022226
892.6974,0.022244
894.5611,0.022142
896.4247,0.022182
898.2884,0.022154
900.1521,0.022036
902.0158,0.022028
903.8794,0.022074
905.7431,0.022058
907.6068,0.022007
909.4704,0.022043
911.3341,0.022278
913.1978,0.022647
915.0614,0.022937
916.9251,0.023116
918.7888,0.023200
920.6524,0.023089
922.5161,0.022919
924.3798,0.022964
926.2435,0.023066
928.1071,0.023038
929.9708,0.023068
931.8345,0.023274
933.6981,0.023322
935.5618,0.023236
937.4255,0.023378
939.2891,0.023855
941.1528,0.024302
943.0165,0.024654
944.8801,0.024932
946.7438,0.025001
948.6075,0.025049
950.4711,0.025187
952.3348,0.025292
954.1985,0.025471
956.0622,0.025760
957.9258,0.026262
959.7895,0.027043
961.6532,0.027881
963.5168,0.028759
965.3805,0.029615
967.2442,0.030202
969.1078,0.030489
970.9715,0.030613
972.8352,0.030631
974.6988,0.030616
976.5625,0.030732
978.4262,0.031058
980.2899,0.031559
982.1535,0.032118
984.0172,0.032672
985.8809,0.033100
987.7445,0.033480
989.6082,0.033891
991.4719,0.034386
993.3355,0.035013
995.1992,0.035792
997.0629,0.036506
998.9265,0.037087
1000.7902,0.037657
1002.6539,0.038337
1004.5175,0.039107
1006.3812,0.039910
1008.2449,0.040969
1010.1086,0.042313
1011.9722,0.043700
1013.8359,0.045139
1015.6996,0.046578
1017.5632,0.047782
1019.4269,0.048671
1021.2906,0.049349
1023.1542,0.049837
1025.0179,0.050269
1026.8816,0.050822
1028.7452,0.051413
1030.6089,0.051875
1032.4726,0.052202
1034.3362,0.052375
1036.1999,0.052380
1038.0636,0.052222
1039.9273,0.052053
1041.7909,0.051872
1043.6546,0.051560
1045.5183,0.051222
1047.3819,0.051104
1049.2456,0.051065
1051.1093,0.051041
1052.9729,0.051090
1054.8366,0.051124
1056.7003,0.051178
1058.5639,0.051215
1060.4276,0.051177
1062.2913,0.051206
1064.1550,0.051304
1066.0186,0.051450
1067.8823,0.051615
1069.7460,0.051777
1071.6096,0.051747
1073.4733,0.051577
1075.3370,0.051346
1077.2006,0.050758
1079.0643,0.049760
1080.9280,0.048498
1082.7916,0.047025
1084.6553,0.045461
1086.5190,0.043917
1088.3826,0.042421
1090.2463,0.041124
1092.1100,0.040097
1093.9737,0.039152
1095.8373,0.038271
1097.7010,0.037574
1099.5647,0.036974
1101.4283,0.036423
1103.2920,0.035993
1105.1557,0.035725
1107.0193,0.035609
1108.8830,0.035537
1110.7467,0.035574
1112.6103,0.035691
1114.4740,0.035720
1116.3377,0.035536
1118.2014,0.035243
1120.0650,0.034851
1121.9287,0.034285
1123.7924,0.033794
1125.6560,0.033316
1127.5197,0.032697
1129.3834,0.032061
1131.2470,0.031496
1133.1107,0.030850
1134.9744,0.030152
1136.8380,0.029477
1138.7017,0.028856
1140.5654,0.028336
1142.4290,0.027876
1144.2927,0.027577
1146.1564,0.027472
1148.0201,0.027429
1149.8837,0.027401
1151.7474,0.027440
1153.6111,0.027420
1155.4747,0.027267
1157.3384,0.027080
1159.2021,0.026900
1161.0657,0.026652
1162.9294,0.026372
1164.7931,0.026040
1166.6567,0.025498
1168.5204,0.024750
1170.3841,0.023850
1172.2477,0.022816
1174.1114,0.021712
1175.9751,0.020640
1177.8388,0.019747
1179.7024,0.019053
1181.5661,0.018597
1183.4298,0.018262
1185.2934,0.018141
1187.1571,0.018147
1189.0208,0.018216
1190.8844,0.018463
1192.7481,0.018815
1194.6118,0.019220
1196.4754,0.019659
1198.3391,0.020239
1200.2028,0.020794
1202.0665,0.021343
1203.9301,0.021895
1205.7938,0.022259
1207.6575,0.022705
1209.5211,0.023135
1211.3848,0.023425
1213.2485,0.023801
1215.1121,0.024191
1216.9758,0.024581
1218.8395,0.025104
1220.7031,0.025629
1222.5668,0.026109
1224.4305,0.026576
1226.2941,0.026977
1228.1578,0.027323
1230.0215,0.027682
1231.8852,0.027968
1233.7488,0.028077
1235.6125,0.028071
1237.4762,0.028143
1239.3398,0.028095
1241.2035,0.027902
1243.0672,0.027693
1244.9308,0.027492
1246.7945,0.027259
1248.6582,0.027015
1250.5218,0.026698
1252.3855,0.026362
1254.2492,0.026091
1256.1129,0.025840
1257.9765,0.025542
1259.8402,0.025250
1261.7039,0.025014
1263.5675,0.024812
1265.4312,0.024585
1267.2949,0.024425
1269.1585,0.024236
1271.0222,0.024121
1272.8859,0.024025
1274.7495,0.023805
1276.6132,0.023593
1278.4769,0.023446
1280.3405,0.023450
1282.2042,0.023542
1284.0679,0.023479
1285.9316,0.023428
1287.7952,0.023480
1289.6589,0.023594
1291.5226,0.023629
1293.3862,0.023686
1295.2499,0.023894
1297.1136,0.024182
1298.9772,0.024488
1300.8409,0.024753
1302.7046,0.025052
1304.5682,0.025368
1306.4319,0.025630
1308.2956,0.025893
1310.1592,0.026263
1312.0229,0.026537
1313.8866,0.026622
1315.7503,0.026608
1317.6139,0.026600
1319.4776,0.026506
1321.3413,0.026359
1323.2049,0.026252
1325.0686,0.026113
1326.9323,0.025952
1328.7959,0.025727
1330.6596,0.025550
1332.5233,0.025573
1334.3869,0.025748
1336.2506,0.025830
1338.1143,0.025988
1339.9780,0.026318
1341.8416,0.026347
1343.7053,0.026319
1345.5690,0.026379
1347.4326,0.026401
1349.2963,0.026438
1351.1600,0.026393
1353.0236,0.026457
1354.8873,0.026687
1356.7510,0.026841
1358.6146,0.027035
1360.4783,0.027433
1362.3420,0.028167
1364.2056,0.028924
1366.0693,0.029411
1367.9330,0.029948
1369.7967,0.030569
1371.6603,0.031152
1373.5240,0.031835
1375.3877,0.032485
1377.2513,0.032734
1379.1150,0.032977
1380.9787,0.033092
1382.8423,0.033094
1384.7060,0.033332
1386.5697,0.033946
1388.4333,0.034290
1390.2970,0.034055
1392.1607,0.034069
1394.0244,0.034550
1395.8880,0.035167
1397.7517,0.035308
1399.6154,0.035460
1401.4790,0.035263
1403.3427,0.034983
1405.2064,0.034860
1407.0700,0.034369
1408.9337,0.033817
1410.7974,0.033281
1412.6610,0.032501
1414.5247,0.031714
1416.3884,0.031327
1418.2520,0.031405
1420.1157,0.031196
1421.9794,0.030358
1423.8431,0.029897
1425.7067,0.029680
1427.5704,0.029538
1429.4341,0.029834
1431.2977,0.030051
1433.1614,0.029881
1435.0251,0.030317
1436.8887,0.031741
1438.7524,0.032055
1440.6161,0.031631
1442.4797,0.031695
1444.3434,0.031884
1446.2071,0.032076
1448.0707,0.032324
1449.9344,0.032101
1451.7981,0.031361
1453.6618,0.030868
1455.5254,0.030771
1457.3891,0.031404
1459.2528,0.030493
1461.1164,0.029135
1462.9801,0.028452
1464.8438,0.028332
1466.7074,0.027603
1468.5711,0.026559
1470.4348,0.025966
1472.2984,0.025956
1474.1621,0.025708
1476.0258,0.025026
1477.8895,0.024450
1479.7531,0.024136
1481.6168,0.024190
1483.4805,0.024236
1485.3441,0.024540
1487.2078,0.025605
1489.0715,0.027131
1490.9351,0.028349
1492.7988,0.028693
1494.6625,0.029555
1496.5261,0.031866
1498.3898,0.033703
1500.2535,0.034346
1502.1171,0.034480
1503.9808,0.034966
1505.8445,0.038259
1507.7082,0.043170
1509.5718,0.043630
1511.4355,0.043813
1513.2992,0.044643
1515.1628,0.045714
1517.0265,0.047089
1518.8902,0.047555
1520.7538,0.048426
1522.6175,0.049884
1524.4812,0.050021
1526.3448,0.050733
1528.2085,0.050954
1530.0722,0.050763
1531.9359,0.051189
1533.7995,0.052201
1535.6632,0.051574
1537.5269,0.050803
1539.3905,0.052481
1541.2542,0.054338
1543.1179,0.053518
1544.9815,0.052487
1546.8452,0.051366
1548.7089,0.050458
1550.5725,0.049724
1552.4362,0.048412
1554.2999,0.046977
1556.1635,0.045699
1558.0272,0.045790
1559.8909,0.046528
1561.7546,0.044328
1563.6182,0.042428
1565.4819,0.041265
1567.3456,0.040391
1569.2092,0.039759
1571.0729,0.038801
1572.9366,0.037418
1574.8002,0.037014
1576.6639,0.037410
1578.5276,0.036701
1580.3912,0.035911
1582.2549,0.035537
1584.1186,0.035382
1585.9822,0.035664
1587.8459,0.035969
1589.7096,0.036258
1591.5733,0.036722
1593.4369,0.037405
1595.3006,0.038192
1597.1643,0.038962
1599.0279,0.039930
1600.8916,0.040909
1602.7553,0.042253
1604.6189,0.043598
1606.4826,0.045000
1608.3463,0.046784
1610.2099,0.048393
1612.0736,0.049583
1613.9373,0.050786
1615.8010,0.053316
1617.6646,0.056102
1619.5283,0.056436
1621.3920,0.056944
1623.2556,0.058737
1625.1193,0.060032
1626.9830,0.060678
1628.8466,0.061257
1630.7103,0.061224
1632.5740,0.061039
1634.4376,0.061445
1636.3013,0.062122
1638.1650,0.061129
1640.0286,0.059625
1641.8923,0.058350
1643.7560,0.056980
1645.6197,0.056203
1647.4833,0.055394
1649.3470,0.053703
1651.2107,0.052226
1653.0743,0.053031
1654.9380,0.052010
1656.8017,0.049416
1658.6653,0.047254
1660.5290,0.045458
1662.3927,0.044042
1664.2563,0.042559
1666.1200,0.040651
1667.9837,0.038842
1669.8474,0.037229
1671.7110,0.035759
1673.5747,0.034001
1675.4384,0.032397
1677.3020,0.030673
1679.1657,0.028763
1681.0294,0.026864
1682.8930,0.025204
1684.7567,0.023734
1686.6204,0.022144
1688.4840,0.020218
1690.3477,0.018185
1692.2114,0.016377
1694.0750,0.014563
1695.9387,0.012529
1697.8024,0.010655
1699.6661,0.008787
1701.5297,0.007134
1703.3934,0.005712
1705.2571,0.004832
1707.1207,0.004007
1708.9844,0.003008
1710.8481,0.002198
1712.7117,0.001630
1714.5754,0.001262
1716.4391,0.000901
1718.3027,0.000508
1720.1664,0.000381
1722.0301,0.000034
1723.8937,-0.000285
1725.7574,-0.000523
1727.6211,-0.000830
1729.4848,-0.001344
1731.3484,-0.001699
1733.2121,-0.002212
1735.0758,-0.002380
1736.9394,-0.002536
1738.8031,-0.002869
1740.6668,-0.002975
1742.5304,-0.002946
1744.3941,-0.003003
1746.2578,-0.003281
1748.1214,-0.003675
1749.9851,-0.004097
1751.8488,-0.004084
1753.7125,-0.003788
1755.5761,-0.004148
1757.4398,-0.004447
1759.3035,-0.004567
1761.1671,-0.004572
1763.0308,-0.004421
1764.8945,-0.004483
1766.7581,-0.004664
1768.6218,-0.004538
1770.4855,-0.004888
1772.3491,-0.005417
1774.2128,-0.005250
1776.0765,-0.005020
1777.9401,-0.004995
1779.8038,-0.005028
1781.6675,-0.004958
1783.5312,-0.005035
1785.3948,-0.005196
1787.2585,-0.005199
1789.1222,-0.005313
1790.9858,-0.005492
1792.8495,-0.005266
1794.7132,-0.004952
1796.5768,-0.004933
1798.4405,-0.005074
1800.3042,-0.005034
1802.1678,-0.005137
1804.0315,-0.005350
1805.8952,-0.005367
1807.7589,-0.005234
1809.6225,-0.005161
1811.4862,-0.005179
1813.3499,-0.005294
1815.2135,-0.005560
1817.0772,-0.005588
1818.9409,-0.005301
1820.8045,-0.005041
1822.6682,-0.005061
1824.5319,-0.005207
1826.3955,-0.005168
1828.2592,-0.005070
1830.1229,-0.005081
1831.9865,-0.005159
1833.8502,-0.005121
1835.7139,-0.005194
1837.5776,-0.005204
1839.4412,-0.005041
1841.3049,-0.005378
1843.1686,-0.005413
1845.0322,-0.004871
1846.8959,-0.004807
1848.7596,-0.005114
1850.6232,-0.005128
1852.4869,-0.004903
1854.3506,-0.004692
1856.2142,-0.004711
1858.0779,-0.004903
1859.9416,-0.004851
1861.8052,-0.004634
1863.6689,-0.004860
1865.5326,-0.005027
1867.3963,-0.004681
1869.2599,-0.004230
1871.1236,-0.004326
1872.9873,-0.004695
1874.8509,-0.004749
1876.7146,-0.004616
1878.5783,-0.004476
1880.4419,-0.004347
1882.3056,-0.004406
1884.1693,-0.004770
1886.0329,-0.004857
1887.8966,-0.004530
1889.7603,-0.004231
1891.6240,-0.004107
1893.4876,-0.004412
1895.3513,-0.004645
1897.2150,-0.004471
1899.0786,-0.004771
1900.9423,-0.004846
1902.8060,-0.004256
1904.6696,-0.003850
1906.5333,-0.003829
1908.3970,-0.003590
1910.2606,-0.003257
1912.1243,-0.003298
1913.9880,-0.003625
1915.8516,-0.003884
1917.7153,-0.003945
1919.5790,-0.003885
1921.4427,-0.004088
1923.3063,-0.004430
1925.1700,-0.004111
1927.0337,-0.004177
1928.8973,-0.004617
1930.7610,-0.003998
1932.6247,-0.003512
1934.4883,-0.003569
1936.3520,-0.002991
1938.2157,-0.003288
1940.0793,-0.003546
1941.9430,-0.002352
1943.8067,-0.001913
1945.6704,-0.002662
1947.5340,-0.002819
1949.3977,-0.002308
1951.2614,-0.002740
1953.1250,-0.003332
1954.9887,-0.002588
1956.8524,-0.001709
1958.7160,-0.001679
1960.5797,-0.002370
1962.4434,-0.002854
1964.3070,-0.002211
1966.1707,-0.001663
1968.0344,-0.000987
1969.8980,-0.000226
1971.7617,-0.000222
1973.6254,-0.000619
1975.4891,-0.000425
1977.3527,0.001103
1979.2164,0.001532
1981.0801,0.000616
1982.9437,-0.000177
1984.8074,-0.000605
1986.6711,-0.000492
1988.5347,0.000042
1990.3984,0.000328
1992.2621,0.000163
1994.1257,0.000102
1995.9894,-0.000129
1997.8531,-0.000605
1999.7167,-0.001237
2001.5804,-0.000755
2003.4441,-0.000037
2005.3078,-0.000205
2007.1714,-0.000474
2009.0351,-0.000955
2010.8988,-0.000855
2012.7624,-0.000608
2014.6261,-0.000791
2016.4898,-0.000670
2018.3534,-0.001146
2020.2171,-0.001183
2022.0808,0.000072
2023.9444,0.000293
2025.8081,-0.000277
2027.6718,0.001063
2029.5355,0.002788
2031.3991,0.002592
2033.2628,0.002626
2035.1265,0.002309
2036.9901,0.001769
2038.8538,0.002653
2040.7175,0.002627
2042.5811,0.002165
2044.4448,0.002437
2046.3085,0.002264
2048.1721,0.002299
2050.0358,0.003153
2051.8995,0.002536
2053.7631,0.001551
2055.6268,0.001229
2057.4905,0.000926
2059.3542,0.001049
2061.2178,0.001019
2063.0815,0.000691
2064.9452,0.000342
2066.8088,0.000203
2068.6725,0.000159
2070.5362,0.000530
2072.3998,0.000715
2074.2635,0.000261
2076.1272,-0.000182
2077.9908,-0.000231
2079.8545,-0.000511
2081.7182,-0.000589
2083.5819,0.000178
2085.4455,0.000565
2087.3092,-0.000421
2089.1729,-0.001553
2091.0365,-0.002117
2092.9002,-0.002247
2094.7639,-0.002568
2096.6275,-0.002790
2098.4912,-0.002351
2100.3549,-0.002194
2102.2185,-0.002175
2104.0822,-0.001722
2105.9459,-0.001398
2107.8095,-0.001378
2109.6732,-0.001582
2111.5369,-0.001947
2113.4006,-0.002020
2115.2642,-0.001873
2117.1279,-0.001743
2118.9916,-0.001724
2120.8552,-0.001839
2122.7189,-0.002410
2124.5826,-0.003105
2126.4462,-0.003149
2128.3099,-0.003472
2130.1736,-0.003658
2132.0372,-0.003116
2133.9009,-0.002692
2135.7646,-0.002173
2137.6282,-0.002017
2139.4919,-0.002180
2141.3556,-0.001118
2143.2193,-0.000233
2145.0829,-0.000684
2146.9466,-0.000810
2148.8103,-0.000684
2150.6739,-0.000716
2152.5376,-0.000935
2154.4013,-0.000730
2156.2649,-0.000606
2158.1286,-0.000668
2159.9923,0.002036
2161.8559,0.004142
2163.7196,0.003820
2165.5833,0.003290
2167.4470,0.002479
2169.3106,0.001382
2171.1743,0.000611
2173.0380,0.000590
2174.9016,0.000585
2176.7653,0.000570
2178.6290,0.001101
2180.4926,0.001139
2182.3563,0.000527
2184.2200,0.000458
2186.0836,0.000243
2187.9473,-0.000476
2189.8110,-0.000410
2191.6746,0.000426
2193.5383,0.000822
2195.4020,0.000873
2197.2657,0.001007
2199.1293,0.000534
2200.9930,0.000149
2202.8567,0.000141
2204.7203,-0.000333
2206.5840,-0.000428
2208.4477,0.000200
2210.3113,0.000510
2212.1750,-0.000036
2214.0387,-0.000877
2215.9023,-0.000936
2217.7660,-0.000480
2219.6297,0.000060
2221.4934,-0.000122
2223.3570,-0.000883
2225.2207,-0.000813
2227.0844,-0.000277
2228.9480,-0.000444
2230.8117,-0.000861
2232.6754,-0.000319
2234.5390,0.000239
2236.4027,0.000041
2238.2664,-0.000604
2240.1300,-0.001419
2241.9937,-0.001378
2243.8574,-0.000724
2245.7210,-0.000738
2247.5847,-0.001155
2249.4484,-0.001003
2251.3121,-0.000958
2253.1757,-0.001529
2255.0394,-0.001777
2256.9031,-0.001415
2258.7667,-0.001200
2260.6304,-0.001611
2262.4941,-0.001372
2264.3577,-0.001193
2266.2214,-0.001417
2268.0851,-0.000966
2269.9487,-0.000848
2271.8124,-0.001062
2273.6761,-0.001069
2275.5397,-0.001075
2277.4034,-0.001099
2279.2671,-0.001227
2281.1308,-0.001098
2282.9944,-0.000882
2284.8581,-0.000989
2286.7218,-0.001131
2288.5854,-0.001097
2290.4491,-0.001373
2292.3128,-0.001800
2294.1764,-0.002046
2296.0401,-0.002067
2297.9038,-0.001902
2299.7674,-0.001954
2301.6311,-0.002150
2303.4948,-0.002000
2305.3585,-0.002010
2307.2221,-0.002441
2309.0858,-0.002530
2310.9495,-0.002272
2312.8131,-0.002324
2314.6768,-0.002450
2316.5405,-0.002142
2318.4041,-0.001787
2320.2678,-0.001591
2322.1315,-0.001574
2323.9951,-0.001691
2325.8588,-0.001905
2327.7225,-0.002564
2329.5861,-0.002910
2331.4498,-0.002917
2333.3135,-0.002978
2335.1772,-0.002887
2337.0408,-0.002954
2338.9045,-0.003064
2340.7682,-0.002938
2342.6318,-0.002597
2344.4955,-0.002516
2346.3592,-0.002735
2348.2228,-0.003279
2350.0865,-0.003997
2351.9502,-0.004129
2353.8138,-0.003255
2355.6775,-0.002463
2357.5412,-0.002296
2359.4049,-0.002212
2361.2685,-0.002538
2363.1322,-0.002606
2364.9959,-0.002212
2366.8595,-0.002386
2368.7232,-0.002724
2370.5869,-0.002628
2372.4505,-0.002599
2374.3142,-0.002650
2376.1779,-0.002615
2378.0415,-0.002723
2379.9052,-0.002869
2381.7689,-0.002959
2383.6325,-0.002932
2385.4962,-0.002829
2387.3599,-0.002725
2389.2236,-0.002874
2391.0872,-0.003215
2392.9509,-0.003294
2394.8146,-0.002910
2396.6782,-0.002793
2398.5419,-0.003096
2400.4056,-0.002991
2402.2692,-0.002776
2404.1329,-0.002787
2405.9966,-0.002569
2407.8602,-0.002440
2409.7239,-0.002430
2411.5876,-0.002428
2413.4512,-0.002562
2415.3149,-0.002432
2417.1786,-0.002261
2419.0423,-0.002047
2420.9059,-0.001938
2422.7696,-0.002191
2424.6333,-0.002356
2426.4969,-0.002298
2428.3606,-0.002231
2430.2243,-0.002198
2432.0879,-0.002083
2433.9516,-0.001873
2435.8153,-0.001644
2437.6789,-0.001369
2439.5426,-0.001251
2441.4063,-0.001720
2443.2700,-0.001906
2445.1336,-0.001515
2446.9973,-0.001361
2448.8610,-0.001528
2450.7246,-0.001709
2452.5883,-0.001430
2454.4520,-0.001109
2456.3156,-0.001078
2458.1793,-0.000943
2460.0430,-0.001079
2461.9066,-0.001350
2463.7703,-0.001135
2465.6340,-0.000890
2467.4976,-0.001096
2469.3613,-0.001171
2471.2250,-0.000948
2473.0887,-0.000928
2474.9523,-0.001186
2476.8160,-0.001495
2478.6797,-0.001647
2480.5433,-0.001595
2482.4070,-0.001279
2484.2707,-0.001082
2486.1343,-0.000923
2487.9980,-0.000944
2489.8617,-0.000973
2491.7253,-0.000855
2493.5890,-0.000920
2495.4527,-0.000870
2497.3164,-0.000610
2499.1800,-0.000420
2501.0437,-0.000503
2502.9074,-0.000481
2504.7710,-0.000379
2506.6347,-0.000657
2508.4984,-0.000823
2510.3620,-0.000876
2512.2257,-0.000620
2514.0894,-0.000319
2515.9530,-0.000372
2517.8167,-0.000166
2519.6804,-0.000023
2521.5440,0.000012
2523.4077,-0.000066
2525.2714,-0.000289
2527.1351,-0.000678
2528.9987,-0.000435
2530.8624,-0.000144
2532.7261,0.000015
2534.5897,0.000333
2536.4534,0.000121
2538.3171,-0.000337
2540.1807,-0.000393
2542.0444,-0.000085
2543.9081,0.000151
2545.7717,0.000194
2547.6354,0.000198
2549.4991,0.000141
2551.3627,-0.000127
2553.2264,-0.000319
2555.0901,0.000031
2556.9538,0.000321
2558.8174,0.000292
2560.6811,0.000281
2562.5448,0.000325
2564.4084,0.000347
2566.2721,0.000439
2568.1358,0.000540
2569.9994,0.000646
2571.8631,0.000488
2573.7268,0.000627
2575.5904,0.000812
2577.4541,0.000291
2579.3178,0.000244
2581.1815,0.000605
2583.0451,0.000609
2584.9088,0.000849
2586.7725,0.001011
2588.6361,0.001083
