Wavenumber,Intensity
650.4205,0.053111
652.2841,0.052038
654.1478,0.051460
656.0115,0.052226
657.8751,0.054854
659.7388,0.054112
661.6025,0.051260
663.4661,0.052076
665.3298,0.052212
667.1935,0.050344
669.0571,0.049678
670.9208,0.049871
672.7845,0.049556
674.6481,0.048893
676.5118,0.048597
678.3755,0.047976
680.2392,0.047933
682.1028,0.048921
683.9665,0.048300
685.8302,0.046899
687.6938,0.047220
689.5575,0.047426
691.4212,0.046970
693.2848,0.046231
695.1485,0.045947
697.0122,0.045910
698.8758,0.045593
700.7395,0.044691
702.6032,0.043627
704.4669,0.043201
706.3305,0.042808
708.1942,0.042513
710.0579,0.042410
711.9215,0.042560
713.7852,0.042255
715.6489,0.041109
717.5125,0.040640
719.3762,0.040402
721.2399,0.039573
723.1035,0.038928
724.9672,0.038944
726.8309,0.038961
728.6945,0.038780
730.5582,0.037966
732.4219,0.037110
734.2856,0.037359
736.1492,0.037332
738.0129,0.036652
739.8766,0.036869
741.7402,0.037557
743.6039,0.037672
745.4676,0.037451
747.3312,0.037042
749.1949,0.036732
751.0586,0.036721
752.9222,0.036700
754.7859,0.036545
756.6496,0.036220
758.5132,0.035525
760.3769,0.035174
762.2406,0.035440
764.1043,0.035957
765.9679,0.036433
767.8316,0.036111
769.6953,0.035810
771.5589,0.035990
773.4226,0.036236
775.2863,0.036090
777.1499,0.035599
779.0136,0.035350
780.8773,0.034998
782.7409,0.034635
784.6046,0.034403
786.4683,0.034207
788.3320,0.033812
790.1956,0.033457
792.0593,0.033207
793.9230,0.033037
795.7866,0.033092
797.6503,0.033268
799.5140,0.033312
801.3776,0.033077
803.2413,0.032934
805.1050,0.033109
806.9686,0.033241
808.8323,0.033057
810.6960,0.033224
812.5596,0.033611
814.4233,0.033407
816.2870,0.033152
818.1507,0.033299
820.0143,0.033435
821.8780,0.033101
823.7417,0.032543
825.6053,0.032158
827.4690,0.032036
829.3327,0.032064
831.1963,0.031803
833.0600,0.031374
834.9237,0.031401
836.7873,0.031674
838.6510,0.031674
840.5147,0.031647
842.3784,0.031755
844.2420,0.031699
846.1057,0.031777
847.9694,0.031916
849.8330,0.031968
851.6967,0.032274
853.5604,0.032531
855.4240,0.032470
857.2877,0.032359
859.1514,0.032391
861.0150,0.032542
862.8787,0.032605
864.7424,0.032751
866.6060,0.033119
868.4697,0.033401
870.3334,0.033368
872.1971,0.033390
874.0607,0.033579
875.9244,0.033516
877.7881,0.033273
879.6517,0.033074
881.5154,0.032959
883.3791,0.032930
885.2427,0.032873
887.1064,0.032764
888.9701,0.032637
890.8337,0.032575
892.6974,0.032607
894.5611,0.032655
896.4247,0.032536
898.2884,0.032387
900.1521,0.032301
902.0158,0.032260
903.8794,0.032357
905.7431,0.032494
907.6068,0.032623
909.4704,0.032898
911.3341,0.033075
913.1978,0.033347
915.0614,0.033807
916.9251,0.034152
918.7888,0.034462
920.6524,0.034687
922.5161,0.034743
924.3798,0.034742
926.2435,0.034635
928.1071,0.034554
929.9708,0.034574
931.8345,0.034506
933.6981,0.034357
935.5618,0.034312
937.4255,0.034322
939.2891,0.034549
941.1528,0.034991
943.0165,0.035328
944.8801,0.035486
946.7438,0.035691
948.6075,0.035852
950.4711,0.035930
952.3348,0.035997
954.1985,0.036159
956.0622,0.036457
957.9258,0.036976
959.7895,0.037889
961.6532,0.039070
963.5168,0.040135
965.3805,0.040875
967.2442,0.041412
969.1078,0.041811
970.9715,0.042102
972.8352,0.042238
974.6988,0.042331
976.5625,0.042612
978.4262,0.043176
980.2899,0.043786
982.1535,0.044473
984.0172,0.045182
985.8809,0.045824
987.7445,0.046533
989.6082,0.047328
991.4719,0.048215
993.3355,0.049066
995.1992,0.049918
997.0629,0.050772
998.9265,0.051463
1000.7902,0.052138
1002.6539,0.052856
1004.5175,0.053566
1006.3812,0.054535
1008.2449,0.055831
1010.1086,0.057403
1011.9722,0.058974
1013.8359,0.060502
1015.6996,0.062200
1017.5632,0.063716
1019.4269,0.064831
1021.2906,0.065787
1023.1542,0.066631
1025.0179,0.067344
1026.8816,0.068083
1028.7452,0.068887
1030.6089,0.069779
1032.4726,0.070516
1034.3362,0.070997
1036.1999,0.071349
1038.0636,0.071511
1039.9273,0.071427
1041.7909,0.071253
1043.6546,0.071080
1045.5183,0.070827
1047.3819,0.070589
1049.2456,0.070408
1051.1093,0.070306
1052.9729,0.070277
1054.8366,0.070295
1056.7003,0.070341
1058.5639,0.070480
1060.4276,0.070744
1062.2913,0.071009
1064.1550,0.071335
1066.0186,0.071801
1067.8823,0.072208
1069.7460,0.072451
1071.6096,0.072447
1073.4733,0.072291
1075.3370,0.071913
1077.2006,0.071227
1079.0643,0.070226
1080.9280,0.068869
1082.7916,0.067243
1084.6553,0.065630
1086.5190,0.063961
1088.3826,0.062263
1090.2463,0.060733
1092.1100,0.059395
1093.9737,0.058168
1095.8373,0.057113
1097.7010,0.056263
1099.5647,0.055457
1101.4283,0.054712
1103.2920,0.054173
1105.1557,0.053873
1107.0193,0.053583
1108.8830,0.053304
1110.7467,0.053274
1112.6103,0.053346
1114.4740,0.053228
1116.3377,0.053096
1118.2014,0.052920
1120.0650,0.052575
1121.9287,0.052172
1123.7924,0.051709
1125.6560,0.051117
1127.5197,0.050360
1129.3834,0.049622
1131.2470,0.048823
1133.1107,0.047949
1134.9744,0.047103
1136.8380,0.046182
1138.7017,0.045338
1140.5654,0.044694
1142.4290,0.044124
1144.2927,0.043628
1146.1564,0.043274
1148.0201,0.043002
1149.8837,0.042693
1151.7474,0.042421
1153.6111,0.042136
1155.4747,0.041848
1157.3384,0.041522
1159.2021,0.041104
1161.0657,0.040601
1162.9294,0.040054
1164.7931,0.039503
1166.6567,0.038726
1168.5204,0.037745
1170.3841,0.036699
1172.2477,0.035637
1174.1114,0.034578
1175.9751,0.033467
1177.8388,0.032429
1179.7024,0.031632
1181.5661,0.031044
1183.4298,0.030692
1185.2934,0.030537
1187.1571,0.030510
1189.0208,0.030496
1190.8844,0.030592
1192.7481,0.030790
1194.6118,0.031009
1196.4754,0.031286
1198.3391,0.031709
1200.2028,0.032183
1202.0665,0.032569
1203.9301,0.032873
1205.7938,0.033272
1207.6575,0.033573
1209.5211,0.033746
1211.3848,0.033938
1213.2485,0.034137
1215.1121,0.034442
1216.9758,0.034906
1218.8395,0.035425
1220.7031,0.035967
1222.5668,0.036478
1224.4305,0.037021
1226.2941,0.037622
1228.1578,0.038085
1230.0215,0.038487
1231.8852,0.038813
1233.7488,0.039042
1235.6125,0.039265
1237.4762,0.039437
1239.3398,0.039505
1241.2035,0.039486
1243.0672,0.039413
1244.9308,0.039185
1246.7945,0.038845
1248.6582,0.038550
1250.5218,0.038308
1252.3855,0.038035
1254.2492,0.037737
1256.1129,0.037456
1257.9765,0.037213
1259.8402,0.037055
1261.7039,0.036819
1263.5675,0.036566
1265.4312,0.036403
1267.2949,0.036243
1269.1585,0.036065
1271.0222,0.035885
1272.8859,0.035662
1274.7495,0.035449
1276.6132,0.035304
1278.4769,0.035138
1280.3405,0.034873
1282.2042,0.034689
1284.0679,0.034518
1285.9316,0.034360
1287.7952,0.034299
1289.6589,0.034176
1291.5226,0.034096
1293.3862,0.034161
1295.2499,0.034258
1297.1136,0.034435
1298.9772,0.034707
1300.8409,0.034923
1302.7046,0.035166
1304.5682,0.035442
1306.4319,0.035663
1308.2956,0.035874
1310.1592,0.035996
1312.0229,0.036081
1313.8866,0.036160
1315.7503,0.036176
1317.6139,0.036159
1319.4776,0.036035
1321.3413,0.035882
1323.2049,0.035767
1325.0686,0.035606
1326.9323,0.035485
1328.7959,0.035485
1330.6596,0.035432
1332.5233,0.035390
1334.3869,0.035501
1336.2506,0.035593
1338.1143,0.035998
1339.9780,0.036518
1341.8416,0.036449
1343.7053,0.036232
1345.5690,0.036189
1347.4326,0.036213
1349.2963,0.036266
1351.1600,0.036259
1353.0236,0.036275
1354.8873,0.036392
1356.7510,0.036554
1358.6146,0.036725
1360.4783,0.037242
1362.3420,0.038258
1364.2056,0.038946
1366.0693,0.039274
1367.9330,0.039905
1369.7967,0.040484
1371.6603,0.041059
1373.5240,0.042120
1375.3877,0.043093
1377.2513,0.043344
1379.1150,0.043633
1380.9787,0.043942
1382.8423,0.044119
1384.7060,0.044618
1386.5697,0.045790
1388.4333,0.046745
1390.2970,0.046689
1392.1607,0.046806
1394.0244,0.047907
1395.8880,0.049155
1397.7517,0.049730
1399.6154,0.050241
1401.4790,0.050061
1403.3427,0.050086
1405.2064,0.050253
1407.0700,0.049470
1408.9337,0.048684
1410.7974,0.048044
1412.6610,0.046817
1414.5247,0.045182
1416.3884,0.044085
1418.2520,0.044078
1420.1157,0.043716
1421.9794,0.042385
1423.8431,0.041484
1425.7067,0.040795
1427.5704,0.040263
1429.4341,0.040231
1431.2977,0.039905
1433.1614,0.039410
1435.0251,0.039962
1436.8887,0.041256
1438.7524,0.041039
1440.6161,0.040448
1442.4797,0.040393
1444.3434,0.040264
1446.2071,0.040269
1448.0707,0.040354
1449.9344,0.039895
1451.7981,0.038911
1453.6618,0.038098
1455.5254,0.038068
1457.3891,0.038816
1459.2528,0.037303
1461.1164,0.035498
1462.9801,0.034713
1464.8438,0.034593
1466.7074,0.033474
1468.5711,0.032083
1470.4348,0.031498
1472.2984,0.031836
1474.1621,0.031567
1476.0258,0.030715
1477.8895,0.029910
1479.7531,0.029421
1481.6168,0.029305
1483.4805,0.029080
1485.3441,0.029249
1487.2078,0.030380
1489.0715,0.032166
1490.9351,0.033191
1492.7988,0.033141
1494.6625,0.034127
1496.5261,0.036848
1498.3898,0.038818
1500.2535,0.039210
1502.1171,0.039028
1503.9808,0.039760
1505.8445,0.044232
1507.7082,0.049630
1509.5718,0.049357
1511.4355,0.049424
1513.2992,0.050323
1515.1628,0.051378
1517.0265,0.052696
1518.8902,0.053385
1520.7538,0.055035
1522.6175,0.056663
1524.4812,0.056444
1526.3448,0.057141
1528.2085,0.057328
1530.0722,0.057124
1531.9359,0.057852
1533.7995,0.059198
1535.6632,0.058048
1537.5269,0.057185
1539.3905,0.059781
1541.2542,0.062125
1543.1179,0.061019
1544.9815,0.059983
1546.8452,0.058593
1548.7089,0.057560
1550.5725,0.056640
1552.4362,0.055234
1554.2999,0.053954
1556.1635,0.053253
1558.0272,0.054565
1559.8909,0.055378
1561.7546,0.051985
1563.6182,0.049820
1565.4819,0.048787
1567.3456,0.047990
1569.2092,0.047681
1571.0729,0.046731
1572.9366,0.045269
1574.8002,0.045035
1576.6639,0.045754
1578.5276,0.044949
1580.3912,0.043847
1582.2549,0.043455
1584.1186,0.043405
1585.9822,0.043407
1587.8459,0.043367
1589.7096,0.043391
1591.5733,0.043456
1593.4369,0.043754
1595.3006,0.044181
1597.1643,0.044478
1599.0279,0.044750
1600.8916,0.045314
1602.7553,0.045949
1604.6189,0.046622
1606.4826,0.047552
1608.3463,0.048722
1610.2099,0.049855
1612.0736,0.050779
1613.9373,0.051571
1615.8010,0.053930
1617.6646,0.056570
1619.5283,0.056916
1621.3920,0.058050
1623.2556,0.060389
1625.1193,0.062026
1626.9830,0.063291
1628.8466,0.064689
1630.7103,0.065047
1632.5740,0.065142
1634.4376,0.066889
1636.3013,0.069302
1638.1650,0.068296
1640.0286,0.066787
1641.8923,0.065634
1643.7560,0.064857
1645.6197,0.065095
1647.4833,0.064782
1649.3470,0.062642
1651.2107,0.061737
1653.0743,0.063501
1654.9380,0.061821
1656.8017,0.058591
1658.6653,0.056373
1660.5290,0.054935
1662.3927,0.053593
1664.2563,0.051568
1666.1200,0.049214
1667.9837,0.047479
1669.8474,0.046106
1671.7110,0.044209
1673.5747,0.042111
1675.4384,0.040145
1677.3020,0.037925
1679.1657,0.035894
1681.0294,0.034044
1682.8930,0.032589
1684.7567,0.030845
1686.6204,0.028288
1688.4840,0.025950
1690.3477,0.023864
1692.2114,0.021931
1694.0750,0.020062
1695.9387,0.018106
1697.8024,0.016397
1699.6661,0.014877
1701.5297,0.013405
1703.3934,0.012065
1705.2571,0.010948
1707.1207,0.009916
1708.9844,0.008985
1710.8481,0.008238
1712.7117,0.007918
1714.5754,0.007793
1716.4391,0.007482
1718.3027,0.007028
1720.1664,0.006465
1722.0301,0.005778
1723.8937,0.005471
1725.7574,0.005057
1727.6211,0.004467
1729.4848,0.004000
1731.3484,0.003919
1733.2121,0.003598
1735.0758,0.003511
1736.9394,0.003206
1738.8031,0.002773
1740.6668,0.002569
1742.5304,0.002329
1744.3941,0.002194
1746.2578,0.002207
1748.1214,0.002064
1749.9851,0.001638
1751.8488,0.001335
1753.7125,0.001209
1755.5761,0.000843
1757.4398,0.001011
1759.3035,0.000997
1761.1671,0.000664
1763.0308,0.000603
1764.8945,0.000487
1766.7581,0.000169
1768.6218,0.000308
1770.4855,0.000491
1772.3491,0.000563
1774.2128,0.000505
1776.0765,0.000485
1777.9401,0.000516
1779.8038,0.000556
1781.6675,0.000612
1783.5312,0.000502
1785.3948,0.000466
1787.2585,0.000564
1789.1222,0.000580
1790.9858,0.000273
1792.8495,0.000292
1794.7132,0.000490
1796.5768,0.000377
1798.4405,0.000398
1800.3042,0.000875
1802.1678,0.001111
1804.0315,0.000903
1805.8952,0.000659
1807.7589,0.000573
1809.6225,0.000459
1811.4862,0.000413
1813.3499,0.000472
1815.2135,0.000357
1817.0772,0.000214
1818.9409,0.000221
1820.8045,0.000385
1822.6682,0.000803
1824.5319,0.001228
1826.3955,0.001008
1828.2592,0.000590
1830.1229,0.000862
1831.9865,0.001357
1833.8502,0.001145
1835.7139,0.000751
1837.5776,0.000682
1839.4412,0.001022
1841.3049,0.001143
1843.1686,0.000996
1845.0322,0.001214
1846.8959,0.001410
1848.7596,0.001143
1850.6232,0.001143
1852.4869,0.001419
1854.3506,0.001296
1856.2142,0.001351
1858.0779,0.001613
1859.9416,0.001315
1861.8052,0.001186
1863.6689,0.001243
1865.5326,0.001393
1867.3963,0.001610
1869.2599,0.001539
1871.1236,0.001376
1872.9873,0.001456
1874.8509,0.001612
1876.7146,0.001949
1878.5783,0.001944
1880.4419,0.001855
1882.3056,0.001817
1884.1693,0.001541
1886.0329,0.001263
1887.8966,0.001313
1889.7603,0.001673
1891.6240,0.001593
1893.4876,0.001733
1895.3513,0.002446
1897.2150,0.002398
1899.0786,0.001977
1900.9423,0.002238
1902.8060,0.002599
1904.6696,0.002507
1906.5333,0.002222
1908.3970,0.002112
1910.2606,0.002288
1912.1243,0.002634
1913.9880,0.002478
1915.8516,0.002227
1917.7153,0.002721
1919.5790,0.002862
1921.4427,0.002484
1923.3063,0.001948
1925.1700,0.001608
1927.0337,0.001741
1928.8973,0.002201
1930.7610,0.002770
1932.6247,0.002834
1934.4883,0.002475
1936.3520,0.002185
1938.2157,0.002218
1940.0793,0.002410
1941.9430,0.003146
1943.8067,0.003263
1945.6704,0.002642
1947.5340,0.002989
1949.3977,0.003293
1951.2614,0.003145
1953.1250,0.002874
1954.9887,0.002311
1956.8524,0.002608
1958.7160,0.003704
1960.5797,0.004318
1962.4434,0.004335
1964.3070,0.003824
1966.1707,0.002857
1968.0344,0.001868
1969.8980,0.002430
1971.7617,0.003461
1973.6254,0.003561
1975.4891,0.004642
1977.3527,0.006118
1979.2164,0.007226
1981.0801,0.006752
1982.9437,0.005633
1984.8074,0.005462
1986.6711,0.005249
1988.5347,0.005722
1990.3984,0.006400
1992.2621,0.004766
1994.1257,0.003123
1995.9894,0.003266
1997.8531,0.004012
1999.7167,0.004488
2001.5804,0.003953
2003.4441,0.003002
2005.3078,0.003384
2007.1714,0.004288
2009.0351,0.004582
2010.8988,0.004161
2012.7624,0.003914
2014.6261,0.004481
2016.4898,0.004668
2018.3534,0.005243
2020.2171,0.005933
2022.0808,0.005926
2023.9444,0.005590
2025.8081,0.004885
2027.6718,0.005446
2029.5355,0.006620
2031.3991,0.005999
2033.2628,0.005378
2035.1265,0.007208
2036.9901,0.008007
2038.8538,0.007299
2040.7175,0.006628
2042.5811,0.006020
2044.4448,0.006692
2046.3085,0.008066
2048.1721,0.008668
2050.0358,0.008863
2051.8995,0.007750
2053.7631,0.006651
2055.6268,0.007396
2057.4905,0.007661
2059.3542,0.007115
2061.2178,0.006624
2063.0815,0.006880
2064.9452,0.007443
2066.8088,0.007690
2068.6725,0.007269
2070.5362,0.006403
2072.3998,0.006173
2074.2635,0.006618
2076.1272,0.006500
2077.9908,0.006163
2079.8545,0.006086
2081.7182,0.005945
2083.5819,0.005833
2085.4455,0.005440
2087.3092,0.004925
2089.1729,0.004310
2091.0365,0.003818
2092.9002,0.003971
2094.7639,0.004796
2096.6275,0.005542
2098.4912,0.005256
2100.3549,0.004639
2102.2185,0.004618
2104.0822,0.004824
2105.9459,0.004914
2107.8095,0.004766
2109.6732,0.004589
2111.5369,0.004636
2113.4006,0.004954
2115.2642,0.004910
2117.1279,0.003882
2118.9916,0.003535
2120.8552,0.004263
2122.7189,0.004001
2124.5826,0.003413
2126.4462,0.003362
2128.3099,0.003224
2130.1736,0.002912
2132.0372,0.002949
2133.9009,0.003304
2135.7646,0.003754
2137.6282,0.003905
2139.4919,0.003842
2141.3556,0.003740
2143.2193,0.004306
2145.0829,0.005072
2146.9466,0.004521
2148.8103,0.003759
2150.6739,0.003690
2152.5376,0.004275
2154.4013,0.004506
2156.2649,0.004028
2158.1286,0.005217
2159.9923,0.007798
2161.8559,0.008592
2163.7196,0.008253
2165.5833,0.008619
2167.4470,0.008448
2169.3106,0.007609
2171.1743,0.007037
2173.0380,0.006298
2174.9016,0.005445
2176.7653,0.005556
2178.6290,0.005557
2180.4926,0.004833
2182.3563,0.005514
2184.2200,0.007130
2186.0836,0.007993
2187.9473,0.007670
2189.8110,0.006544
2191.6746,0.006382
2193.5383,0.006905
2195.4020,0.006414
2197.2657,0.005893
2199.1293,0.005669
2200.9930,0.005724
2202.8567,0.006027
2204.7203,0.006026
2206.5840,0.005673
2208.4477,0.005183
2210.3113,0.005496
2212.1750,0.006524
2214.0387,0.005917
2215.9023,0.005142
2217.7660,0.006094
2219.6297,0.006334
2221.4934,0.005872
2223.3570,0.005696
2225.2207,0.006086
2227.0844,0.006631
2228.9480,0.006239
2230.8117,0.005690
2232.6754,0.005967
2234.5390,0.006267
2236.4027,0.006166
2238.2664,0.005742
2240.1300,0.005384
2241.9937,0.005908
2243.8574,0.005914
2245.7210,0.005387
2247.5847,0.005397
2249.4484,0.005717
2251.3121,0.006082
2253.1757,0.006381
2255.0394,0.006563
2256.9031,0.006338
2258.7667,0.005691
2260.6304,0.005182
2262.4941,0.005578
2264.3577,0.006101
2266.2214,0.005998
2268.0851,0.005961
2269.9487,0.006226
2271.8124,0.006362
2273.6761,0.006114
2275.5397,0.006020
2277.4034,0.006228
2279.2671,0.006096
2281.1308,0.006047
2282.9944,0.006164
2284.8581,0.006394
2286.7218,0.006815
2288.5854,0.006600
2290.4491,0.006200
2292.3128,0.006311
2294.1764,0.006289
2296.0401,0.006084
2297.9038,0.005870
2299.7674,0.005620
2301.6311,0.005714
2303.4948,0.005710
2305.3585,0.005372
2307.2221,0.005237
2309.0858,0.005297
2310.9495,0.005439
2312.8131,0.005624
2314.6768,0.005515
2316.5405,0.005394
2318.4041,0.005580
2320.2678,0.005929
2322.1315,0.006458
2323.9951,0.006513
2325.8588,0.005505
2327.7225,0.004615
2329.5861,0.004871
2331.4498,0.004942
2333.3135,0.004739
2335.1772,0.005045
2337.0408,0.005266
2338.9045,0.005188
2340.7682,0.005249
2342.6318,0.005447
2344.4955,0.005169
2346.3592,0.004920
2348.2228,0.004724
2350.0865,0.003691
2351.9502,0.002767
2353.8138,0.003315
2355.6775,0.004848
2357.5412,0.005930
2359.4049,0.005894
2361.2685,0.005732
2363.1322,0.005502
2364.9959,0.005414
2366.8595,0.005256
2368.7232,0.005198
2370.5869,0.005931
2372.4505,0.006354
2374.3142,0.006054
2376.1779,0.005751
2378.0415,0.005642
2379.9052,0.005516
2381.7689,0.005400
2383.6325,0.005197
2385.4962,0.004992
2387.3599,0.005005
2389.2236,0.005157
2391.0872,0.005146
2392.9509,0.004959
2394.8146,0.004855
2396.6782,0.004814
2398.5419,0.004939
2400.4056,0.005135
2402.2692,0.005128
2404.1329,0.005130
2405.9966,0.005113
2407.8602,0.005139
2409.7239,0.005155
2411.5876,0.005154
2413.4512,0.005471
2415.3149,0.005432
2417.1786,0.005410
2419.0423,0.005734
2420.9059,0.005670
2422.7696,0.005562
2424.6333,0.005740
2426.4969,0.005838
2428.3606,0.005780
2430.2243,0.005649
2432.0879,0.005553
2433.9516,0.005603
2435.8153,0.005883
2437.6789,0.005960
2439.5426,0.006013
2441.4063,0.006103
2443.2700,0.006036
2445.1336,0.006134
2446.9973,0.006226
2448.8610,0.005974
2450.7246,0.005706
2452.5883,0.005824
2454.4520,0.006002
2456.3156,0.005951
2458.1793,0.006097
2460.0430,0.005999
2461.9066,0.005721
2463.7703,0.005827
2465.6340,0.006056
2467.4976,0.006225
2469.3613,0.006297
2471.2250,0.006213
2473.0887,0.006028
2474.9523,0.006166
2476.8160,0.006338
2478.6797,0.006109
2480.5433,0.005932
2482.4070,0.005981
2484.2707,0.006058
2486.1343,0.006105
2487.9980,0.005986
2489.8617,0.005822
2491.7253,0.005928
2493.5890,0.006135
2495.4527,0.006239
2497.3164,0.006622
2499.1800,0.006885
2501.0437,0.006496
2502.9074,0.005970
2504.7710,0.005686
2506.6347,0.005807
2508.4984,0.006133
2510.3620,0.006331
2512.2257,0.006422
2514.0894,0.006520
2515.9530,0.006770
2517.8167,0.006671
2519.6804,0.006568
2521.5440,0.006428
2523.4077,0.006219
2525.2714,0.006444
2527.1351,0.006922
2528.9987,0.006730
2530.8624,0.006182
2532.7261,0.006325
2534.5897,0.006572
2536.4534,0.006526
2538.3171,0.006459
2540.1807,0.006313
2542.0444,0.006184
2543.9081,0.006337
2545.7717,0.006636
2547.6354,0.006464
2549.4991,0.006411
2551.3627,0.006742
2553.2264,0.006896
2555.0901,0.006953
2556.9538,0.006948
2558.8174,0.006800
2560.6811,0.007003
2562.5448,0.007106
2564.4084,0.006916
2566.2721,0.006720
2568.1358,0.006554
2569.9994,0.007026
2571.8631,0.007333
2573.7268,0.007137
2575.5904,0.006907
2577.4541,0.006995
2579.3178,0.006983
2581.1815,0.006971
2583.0451,0.007074
2584.9088,0.007034
2586.7725,0.007053
2588.6361,0.007259
2590.4998,0.007387
2592.3635,0.007421
2594.2271,0.007286
2596.0908,0.007243
2597.9545,0.007507
2599.8181,0.007640
2601.6818,0.007680
2603.5455,0.007596
2605.4091,0.007454
2607.2728,0.007687
2609.1365,0.008031
2611.0002,0.008031
2612.8638,0.007739
2614.7275,0.007885
2616.5912,0.007849
2618.4548,0.007546
2620.3185,0.007714
2622.1822,0.008000
2624.0458,0.007953
2625.9095,0.008119
