Wavenumber,Intensity
650.4205,0.074913
652.2841,0.073595
654.1478,0.074788
656.0115,0.074566
657.8751,0.074338
659.7388,0.073646
661.6025,0.070443
663.4661,0.068362
665.3298,0.070314
667.1935,0.073720
669.0571,0.070958
670.9208,0.068504
672.7845,0.069775
674.6481,0.069384
676.5118,0.067137
678.3755,0.065351
680.2392,0.064897
682.1028,0.064786
683.9665,0.063423
685.8302,0.062925
687.6938,0.063651
689.5575,0.064017
691.4212,0.063942
693.2848,0.062979
695.1485,0.062758
697.0122,0.062875
698.8758,0.062126
700.7395,0.061285
702.6032,0.060970
704.4669,0.060523
706.3305,0.059317
708.1942,0.058642
710.0579,0.058527
711.9215,0.057663
713.7852,0.056777
715.6489,0.055879
717.5125,0.054545
719.3762,0.054101
721.2399,0.054290
723.1035,0.053825
724.9672,0.053024
726.8309,0.052495
728.6945,0.052196
730.5582,0.051917
732.4219,0.051664
734.2856,0.051422
736.1492,0.051119
738.0129,0.050615
739.8766,0.050840
741.7402,0.051247
743.6039,0.050402
745.4676,0.049844
747.3312,0.050073
749.1949,0.049701
751.0586,0.048874
752.9222,0.048214
754.7859,0.047874
756.6496,0.047568
758.5132,0.047188
760.3769,0.047083
762.2406,0.046734
764.1043,0.046232
765.9679,0.046002
767.8316,0.045679
769.6953,0.045130
771.5589,0.044899
773.4226,0.045082
775.2863,0.045003
777.1499,0.044589
779.0136,0.044071
780.8773,0.043597
782.7409,0.043222
784.6046,0.043188
786.4683,0.043016
788.3320,0.042495
790.1956,0.042096
792.0593,0.041552
793.9230,0.041278
795.7866,0.041399
797.6503,0.040892
799.5140,0.040069
801.3776,0.040093
803.2413,0.040329
805.1050,0.039958
806.9686,0.039560
808.8323,0.039574
810.6960,0.039481
812.5596,0.039208
814.4233,0.039144
816.2870,0.038838
818.1507,0.038153
820.0143,0.037669
821.8780,0.037563
823.7417,0.037230
825.6053,0.036720
827.4690,0.036561
829.3327,0.036379
831.1963,0.036114
833.0600,0.036063
834.9237,0.035943
836.7873,0.035394
838.6510,0.034884
840.5147,0.034618
842.3784,0.034293
844.2420,0.034097
846.1057,0.033938
847.9694,0.033599
849.8330,0.033561
851.6967,0.033609
853.5604,0.033563
855.4240,0.033789
857.2877,0.033890
859.1514,0.033611
861.0150,0.033560
862.8787,0.033577
864.7424,0.033714
866.6060,0.034214
868.4697,0.034480
870.3334,0.034630
872.1971,0.034941
874.0607,0.034931
875.9244,0.034752
877.7881,0.034570
879.6517,0.034119
881.5154,0.033763
883.3791,0.033558
885.2427,0.033222
887.1064,0.032919
888.9701,0.032752
890.8337,0.032824
892.6974,0.032989
894.5611,0.032853
896.4247,0.032615
898.2884,0.032619
900.1521,0.032611
902.0158,0.032680
903.8794,0.032879
905.7431,0.032971
907.6068,0.033176
909.4704,0.033590
911.3341,0.033942
913.1978,0.034192
915.0614,0.034560
916.9251,0.034930
918.7888,0.035273
920.6524,0.035667
922.5161,0.035894
924.3798,0.035931
926.2435,0.035885
928.1071,0.035884
929.9708,0.035912
931.8345,0.036009
933.6981,0.036109
935.5618,0.036169
937.4255,0.036264
939.2891,0.036467
941.1528,0.036840
943.0165,0.037237
944.8801,0.037385
946.7438,0.037501
948.6075,0.037841
950.4711,0.038221
952.3348,0.038450
954.1985,0.038761
956.0622,0.039459
957.9258,0.040321
959.7895,0.041109
961.6532,0.042022
963.5168,0.042922
965.3805,0.043548
967.2442,0.043961
969.1078,0.044200
970.9715,0.044316
972.8352,0.044303
974.6988,0.044244
976.5625,0.044495
978.4262,0.045008
980.2899,0.045484
982.1535,0.045849
984.0172,0.046227
985.8809,0.046536
987.7445,0.046661
989.6082,0.046812
991.4719,0.047081
993.3355,0.047587
995.1992,0.048251
997.0629,0.048903
998.9265,0.049632
1000.7902,0.050429
1002.6539,0.051265
1004.5175,0.052090
1006.3812,0.053022
1008.2449,0.054014
1010.1086,0.055047
1011.9722,0.056206
1013.8359,0.057407
1015.6996,0.058559
1017.5632,0.059660
1019.4269,0.060728
1021.2906,0.061527
1023.1542,0.062137
1025.0179,0.062714
1026.8816,0.063215
1028.7452,0.063741
1030.6089,0.064250
1032.4726,0.064510
1034.3362,0.064726
1036.1999,0.064926
1038.0636,0.065032
1039.9273,0.065127
1041.7909,0.065205
1043.6546,0.065284
1045.5183,0.065326
1047.3819,0.065449
1049.2456,0.065696
1051.1093,0.065761
1052.9729,0.065788
1054.8366,0.065907
1056.7003,0.065946
1058.5639,0.065916
1060.4276,0.065865
1062.2913,0.065870
1064.1550,0.065754
1066.0186,0.065577
1067.8823,0.065528
1069.7460,0.065354
1071.6096,0.064985
1073.4733,0.064474
1075.3370,0.063829
1077.2006,0.063009
1079.0643,0.061966
1080.9280,0.060742
1082.7916,0.059434
1084.6553,0.058035
1086.5190,0.056586
1088.3826,0.055330
1090.2463,0.054260
1092.1100,0.053252
1093.9737,0.052296
1095.8373,0.051512
1097.7010,0.050850
1099.5647,0.050238
1101.4283,0.049782
1103.2920,0.049496
1105.1557,0.049289
1107.0193,0.049118
1108.8830,0.049025
1110.7467,0.048998
1112.6103,0.049080
1114.4740,0.049224
1116.3377,0.049204
1118.2014,0.048994
1120.0650,0.048709
1121.9287,0.048452
1123.7924,0.048198
1125.6560,0.047940
1127.5197,0.047643
1129.3834,0.047353
1131.2470,0.047067
1133.1107,0.046575
1134.9744,0.045923
1136.8380,0.045308
1138.7017,0.044676
1140.5654,0.044091
1142.4290,0.043635
1144.2927,0.043318
1146.1564,0.043240
1148.0201,0.043270
1149.8837,0.043356
1151.7474,0.043504
1153.6111,0.043567
1155.4747,0.043622
1157.3384,0.043659
1159.2021,0.043676
1161.0657,0.043636
1162.9294,0.043463
1164.7931,0.043199
1166.6567,0.042917
1168.5204,0.042557
1170.3841,0.041958
1172.2477,0.041245
1174.1114,0.040566
1175.9751,0.039814
1177.8388,0.039184
1179.7024,0.038816
1181.5661,0.038674
1183.4298,0.038788
1185.2934,0.039075
1187.1571,0.039374
1189.0208,0.039823
1190.8844,0.040395
1192.7481,0.040946
1194.6118,0.041485
1196.4754,0.042059
1198.3391,0.042802
1200.2028,0.043591
1202.0665,0.044297
1203.9301,0.044998
1205.7938,0.045665
1207.6575,0.046141
1209.5211,0.046436
1211.3848,0.046770
1213.2485,0.047252
1215.1121,0.047757
1216.9758,0.048303
1218.8395,0.048886
1220.7031,0.049479
1222.5668,0.050100
1224.4305,0.050782
1226.2941,0.051329
1228.1578,0.051918
1230.0215,0.052454
1231.8852,0.052812
1233.7488,0.052944
1235.6125,0.052965
1237.4762,0.053000
1239.3398,0.052955
1241.2035,0.052701
1243.0672,0.052271
1244.9308,0.051815
1246.7945,0.051370
1248.6582,0.050826
1250.5218,0.050208
1252.3855,0.049664
1254.2492,0.049255
1256.1129,0.048853
1257.9765,0.048364
1259.8402,0.047971
1261.7039,0.047628
1263.5675,0.047320
1265.4312,0.047142
1267.2949,0.046956
1269.1585,0.046830
1271.0222,0.046706
1272.8859,0.046478
1274.7495,0.046326
1276.6132,0.046300
1278.4769,0.046269
1280.3405,0.046255
1282.2042,0.046185
1284.0679,0.046021
1285.9316,0.045959
1287.7952,0.045973
1289.6589,0.045987
1291.5226,0.046085
1293.3862,0.046115
1295.2499,0.046211
1297.1136,0.046510
1298.9772,0.046760
1300.8409,0.046896
1302.7046,0.047057
1304.5682,0.047361
1306.4319,0.047703
1308.2956,0.047947
1310.1592,0.048031
1312.0229,0.048153
1313.8866,0.048193
1315.7503,0.047983
1317.6139,0.047829
1319.4776,0.047756
1321.3413,0.047571
1323.2049,0.047258
1325.0686,0.047171
1326.9323,0.047149
1328.7959,0.047067
1330.6596,0.047044
1332.5233,0.047080
1334.3869,0.046997
1336.2506,0.046919
1338.1143,0.047087
1339.9780,0.047572
1341.8416,0.047540
1343.7053,0.047274
1345.5690,0.047189
1347.4326,0.047130
1349.2963,0.047123
1351.1600,0.047179
1353.0236,0.047211
1354.8873,0.047467
1356.7510,0.047605
1358.6146,0.047545
1360.4783,0.047865
1362.3420,0.049144
1364.2056,0.050385
1366.0693,0.050848
1367.9330,0.051550
1369.7967,0.052186
1371.6603,0.052386
1373.5240,0.053241
1375.3877,0.054468
1377.2513,0.055007
1379.1150,0.055519
1380.9787,0.056145
1382.8423,0.056525
1384.7060,0.056688
1386.5697,0.057461
1388.4333,0.058436
1390.2970,0.058342
1392.1607,0.057921
1394.0244,0.058235
1395.8880,0.058913
1397.7517,0.059064
1399.6154,0.059269
1401.4790,0.058782
1403.3427,0.058177
1405.2064,0.058036
1407.0700,0.057630
1408.9337,0.056892
1410.7974,0.056388
1412.6610,0.055767
1414.5247,0.054692
1416.3884,0.053740
1418.2520,0.054126
1420.1157,0.054964
1421.9794,0.054237
1423.8431,0.053966
1425.7067,0.054060
1427.5704,0.054055
1429.4341,0.054984
1431.2977,0.055924
1433.1614,0.055726
1435.0251,0.056156
1436.8887,0.058431
1438.7524,0.059189
1440.6161,0.058965
1442.4797,0.059194
1444.3434,0.059099
1446.2071,0.059088
1448.0707,0.059588
1449.9344,0.059475
1451.7981,0.058450
1453.6618,0.056975
1455.5254,0.056197
1457.3891,0.057401
1459.2528,0.056548
1461.1164,0.054470
1462.9801,0.053258
1464.8438,0.053366
1466.7074,0.052748
1468.5711,0.050980
1470.4348,0.049393
1472.2984,0.049326
1474.1621,0.049524
1476.0258,0.049030
1477.8895,0.048589
1479.7531,0.048232
1481.6168,0.048541
1483.4805,0.048817
1485.3441,0.049110
1487.2078,0.050360
1489.0715,0.053241
1490.9351,0.056158
1492.7988,0.056749
1494.6625,0.057460
1496.5261,0.060583
1498.3898,0.063826
1500.2535,0.065521
1502.1171,0.065845
1503.9808,0.065624
1505.8445,0.068108
1507.7082,0.073943
1509.5718,0.075487
1511.4355,0.076373
1513.2992,0.077289
1515.1628,0.078045
1517.0265,0.078706
1518.8902,0.078459
1520.7538,0.078694
1522.6175,0.079953
1524.4812,0.080104
1526.3448,0.080960
1528.2085,0.081461
1530.0722,0.081060
1531.9359,0.080911
1533.7995,0.081717
1535.6632,0.081036
1537.5269,0.079578
1539.3905,0.079448
1541.2542,0.079915
1543.1179,0.079401
1544.9815,0.078598
1546.8452,0.077203
1548.7089,0.075749
1550.5725,0.074258
1552.4362,0.072392
1554.2999,0.069868
1556.1635,0.067094
1558.0272,0.066136
1559.8909,0.066565
1561.7546,0.064279
1563.6182,0.062249
1565.4819,0.060657
1567.3456,0.059276
1569.2092,0.058717
1571.0729,0.057704
1572.9366,0.055693
1574.8002,0.054542
1576.6639,0.055023
1578.5276,0.054651
1580.3912,0.053740
1582.2549,0.053554
1584.1186,0.053598
1585.9822,0.053794
1587.8459,0.054087
1589.7096,0.054534
1591.5733,0.055217
1593.4369,0.056188
1595.3006,0.057559
1597.1643,0.058960
1599.0279,0.060252
1600.8916,0.061934
1602.7553,0.063993
1604.6189,0.065970
1606.4826,0.067888
1608.3463,0.070423
1610.2099,0.073021
1612.0736,0.074784
1613.9373,0.076006
1615.8010,0.078376
1617.6646,0.081836
1619.5283,0.083071
1621.3920,0.083653
1623.2556,0.085436
1625.1193,0.087124
1626.9830,0.087994
1628.8466,0.089012
1630.7103,0.089573
1632.5740,0.089038
1634.4376,0.088526
1636.3013,0.088622
1638.1650,0.087998
1640.0286,0.086618
1641.8923,0.085236
1643.7560,0.083784
1645.6197,0.082606
1647.4833,0.081289
1649.3470,0.079276
1651.2107,0.077197
1653.0743,0.075698
1654.9380,0.074081
1656.8017,0.072281
1658.6653,0.070103
1660.5290,0.067994
1662.3927,0.065710
1664.2563,0.063311
1666.1200,0.060904
1667.9837,0.058637
1669.8474,0.056437
1671.7110,0.054282
1673.5747,0.052019
1675.4384,0.049767
1677.3020,0.047623
1679.1657,0.045390
1681.0294,0.042841
1682.8930,0.040568
1684.7567,0.038611
1686.6204,0.036239
1688.4840,0.033623
1690.3477,0.031254
1692.2114,0.028756
1694.0750,0.026141
1695.9387,0.023068
1697.8024,0.020184
1699.6661,0.017712
1701.5297,0.015843
1703.3934,0.014233
1705.2571,0.012575
1707.1207,0.011101
1708.9844,0.010004
1710.8481,0.009097
1712.7117,0.008131
1714.5754,0.007195
1716.4391,0.006573
1718.3027,0.006247
1720.1664,0.005945
1722.0301,0.005453
1723.8937,0.004997
1725.7574,0.004538
1727.6211,0.004100
1729.4848,0.003603
1731.3484,0.003204
1733.2121,0.002683
1735.0758,0.002834
1736.9394,0.002667
1738.8031,0.002268
1740.6668,0.002072
1742.5304,0.001866
1744.3941,0.001596
1746.2578,0.001227
1748.1214,0.000841
1749.9851,0.000531
1751.8488,0.000078
1753.7125,-0.000267
1755.5761,-0.000768
1757.4398,-0.000980
1759.3035,-0.001094
1761.1671,-0.001316
1763.0308,-0.001356
1764.8945,-0.001619
1766.7581,-0.001882
1768.6218,-0.001629
1770.4855,-0.001667
1772.3491,-0.001928
1774.2128,-0.002113
1776.0765,-0.002173
1777.9401,-0.001892
1779.8038,-0.001732
1781.6675,-0.001859
1783.5312,-0.002022
1785.3948,-0.001950
1787.2585,-0.002096
1789.1222,-0.002226
1790.9858,-0.002265
1792.8495,-0.002151
1794.7132,-0.002124
1796.5768,-0.002262
1798.4405,-0.002365
1800.3042,-0.002278
1802.1678,-0.002175
1804.0315,-0.002177
1805.8952,-0.002352
1807.7589,-0.002436
1809.6225,-0.002391
1811.4862,-0.002352
1813.3499,-0.002485
1815.2135,-0.002774
1817.0772,-0.002808
1818.9409,-0.002736
1820.8045,-0.002501
1822.6682,-0.002438
1824.5319,-0.002545
1826.3955,-0.002424
1828.2592,-0.002479
1830.1229,-0.002406
1831.9865,-0.002318
1833.8502,-0.002196
1835.7139,-0.002153
1837.5776,-0.002367
1839.4412,-0.002446
1841.3049,-0.002465
1843.1686,-0.002268
1845.0322,-0.002097
1846.8959,-0.002027
1848.7596,-0.001886
1850.6232,-0.001942
1852.4869,-0.002336
1854.3506,-0.002390
1856.2142,-0.002017
1858.0779,-0.002014
1859.9416,-0.002247
1861.8052,-0.002374
1863.6689,-0.002301
1865.5326,-0.002176
1867.3963,-0.002133
1869.2599,-0.002156
1871.1236,-0.002228
1872.9873,-0.002290
1874.8509,-0.002137
1876.7146,-0.002107
1878.5783,-0.002136
1880.4419,-0.001964
1882.3056,-0.001766
1884.1693,-0.001712
1886.0329,-0.001935
1887.8966,-0.002113
1889.7603,-0.001924
1891.6240,-0.001520
1893.4876,-0.001384
1895.3513,-0.001891
1897.2150,-0.002421
1899.0786,-0.002392
1900.9423,-0.002213
1902.8060,-0.001656
1904.6696,-0.001653
1906.5333,-0.002252
1908.3970,-0.001737
1910.2606,-0.001115
1912.1243,-0.001484
1913.9880,-0.001901
1915.8516,-0.001740
1917.7153,-0.001307
1919.5790,-0.001356
1921.4427,-0.002090
1923.3063,-0.002232
1925.1700,-0.001960
1927.0337,-0.001908
1928.8973,-0.001846
1930.7610,-0.001762
1932.6247,-0.002181
1934.4883,-0.002548
1936.3520,-0.001975
1938.2157,-0.001254
1940.0793,-0.001206
1941.9430,-0.000844
1943.8067,-0.000837
1945.6704,-0.001755
1947.5340,-0.002368
1949.3977,-0.001435
1951.2614,-0.000578
1953.1250,-0.000352
1954.9887,-0.000870
1956.8524,-0.001779
1958.7160,-0.002312
1960.5797,-0.002225
1962.4434,-0.001310
1964.3070,0.000124
1966.1707,0.000550
1968.0344,0.000232
1969.8980,0.000749
1971.7617,-0.000125
1973.6254,0.000015
1975.4891,0.001416
1977.3527,0.001380
1979.2164,0.001360
1981.0801,0.001983
1982.9437,0.001572
1984.8074,0.000669
1986.6711,0.000157
1988.5347,0.001080
1990.3984,0.001818
1992.2621,0.000560
1994.1257,-0.000104
1995.9894,-0.000143
1997.8531,-0.000065
1999.7167,0.000694
2001.5804,0.000465
2003.4441,-0.000358
2005.3078,0.000889
2007.1714,0.001520
2009.0351,0.000637
2010.8988,0.000622
2012.7624,0.001224
2014.6261,0.001982
2016.4898,0.000668
2018.3534,-0.000215
2020.2171,0.000616
2022.0808,0.000532
2023.9444,0.000447
2025.8081,0.000554
2027.6718,0.000511
2029.5355,0.000546
2031.3991,0.000405
2033.2628,0.001725
2035.1265,0.003589
2036.9901,0.003375
2038.8538,0.002723
2040.7175,0.002533
2042.5811,0.002490
2044.4448,0.003121
2046.3085,0.003584
2048.1721,0.004254
2050.0358,0.004440
2051.8995,0.003629
2053.7631,0.002818
2055.6268,0.003212
2057.4905,0.003504
2059.3542,0.002688
2061.2178,0.002770
2063.0815,0.003527
2064.9452,0.003344
2066.8088,0.002671
2068.6725,0.001962
2070.5362,0.001873
2072.3998,0.002627
2074.2635,0.003167
2076.1272,0.002749
2077.9908,0.002230
2079.8545,0.002377
2081.7182,0.002097
2083.5819,0.001679
2085.4455,0.001769
2087.3092,0.002117
2089.1729,0.001585
2091.0365,0.000541
2092.9002,0.000218
2094.7639,0.000315
2096.6275,0.000858
2098.4912,0.000937
2100.3549,0.001016
2102.2185,0.001421
2104.0822,0.001148
2105.9459,0.000797
2107.8095,0.000992
2109.6732,0.001337
2111.5369,0.001771
2113.4006,0.001905
2115.2642,0.001652
2117.1279,0.001157
2118.9916,0.000448
2120.8552,0.000078
2122.7189,-0.000100
2124.5826,-0.000361
2126.4462,-0.000680
2128.3099,-0.000909
2130.1736,-0.001165
2132.0372,-0.001140
2133.9009,-0.000171
2135.7646,0.000706
2137.6282,0.000865
2139.4919,0.001396
2141.3556,0.001758
2143.2193,0.001090
2145.0829,0.001093
2146.9466,0.001238
2148.8103,0.000999
2150.6739,0.000819
2152.5376,0.000383
2154.4013,0.000027
2156.2649,-0.000137
2158.1286,0.001379
2159.9923,0.004915
2161.8559,0.006953
2163.7196,0.005167
2165.5833,0.003772
2167.4470,0.004148
2169.3106,0.003605
2171.1743,0.002386
2173.0380,0.001867
2174.9016,0.001989
2176.7653,0.002086
2178.6290,0.002449
2180.4926,0.003899
2182.3563,0.004865
2184.2200,0.003572
2186.0836,0.002403
2187.9473,0.002816
2189.8110,0.003239
2191.6746,0.003278
2193.5383,0.003461
2195.4020,0.003427
2197.2657,0.002665
2199.1293,0.002317
2200.9930,0.003076
2202.8567,0.003624
2204.7203,0.002834
2206.5840,0.002238
2208.4477,0.002820
2210.3113,0.002807
2212.1750,0.002218
2214.0387,0.002411
2215.9023,0.002911
2217.7660,0.002695
2219.6297,0.002791
2221.4934,0.003329
2223.3570,0.003252
2225.2207,0.002997
2227.0844,0.002307
2228.9480,0.001938
2230.8117,0.002763
2232.6754,0.003059
2234.5390,0.002750
2236.4027,0.002817
2238.2664,0.002425
2240.1300,0.002019
2241.9937,0.002602
2243.8574,0.002910
2245.7210,0.002468
2247.5847,0.002399
2249.4484,0.002593
2251.3121,0.002379
2253.1757,0.002130
2255.0394,0.002411
2256.9031,0.002326
2258.7667,0.002231
2260.6304,0.002664
2262.4941,0.002307
2264.3577,0.001911
2266.2214,0.002372
2268.0851,0.002775
2269.9487,0.002789
2271.8124,0.002784
2273.6761,0.002619
2275.5397,0.002421
2277.4034,0.002608
2279.2671,0.002816
2281.1308,0.003284
2282.9944,0.003476
2284.8581,0.003221
2286.7218,0.003449
2288.5854,0.003185
2290.4491,0.002639
2292.3128,0.002803
2294.1764,0.002959
2296.0401,0.002735
2297.9038,0.002643
2299.7674,0.002537
2301.6311,0.002334
2303.4948,0.002333
2305.3585,0.002489
2307.2221,0.002272
2309.0858,0.002057
2310.9495,0.002526
2312.8131,0.002574
2314.6768,0.002446
2316.5405,0.002658
2318.4041,0.002988
2320.2678,0.003305
2322.1315,0.003577
2323.9951,0.003686
2325.8588,0.002869
2327.7225,0.001774
2329.5861,0.001664
2331.4498,0.001823
2333.3135,0.001746
2335.1772,0.001981
2337.0408,0.001910
2338.9045,0.001838
2340.7682,0.002522
2342.6318,0.003344
2344.4955,0.003309
2346.3592,0.002764
2348.2228,0.001778
2350.0865,0.001043
2351.9502,0.001095
2353.8138,0.001190
2355.6775,0.001015
2357.5412,0.001256
2359.4049,0.001827
2361.2685,0.002333
2363.1322,0.002356
2364.9959,0.002265
2366.8595,0.002591
2368.7232,0.002931
2370.5869,0.003660
2372.4505,0.003964
2374.3142,0.003351
2376.1779,0.003209
2378.0415,0.003298
2379.9052,0.002829
2381.7689,0.002417
2383.6325,0.002449
2385.4962,0.002439
2387.3599,0.002343
2389.2236,0.002277
2391.0872,0.002289
2392.9509,0.002401
2394.8146,0.002510
2396.6782,0.002334
2398.5419,0.002242
2400.4056,0.002513
2402.2692,0.002692
2404.1329,0.002427
2405.9966,0.002556
2407.8602,0.003131
2409.7239,0.003292
2411.5876,0.003128
2413.4512,0.003140
2415.3149,0.003121
2417.1786,0.003005
2419.0423,0.003019
2420.9059,0.003014
2422.7696,0.003069
2424.6333,0.003248
2426.4969,0.003245
2428.3606,0.003217
2430.2243,0.003581
2432.0879,0.003840
2433.9516,0.003825
2435.8153,0.003882
2437.6789,0.003828
2439.5426,0.003711
2441.4063,0.003803
2443.2700,0.003947
2445.1336,0.003958
2446.9973,0.003946
2448.8610,0.004065
2450.7246,0.004364
2452.5883,0.004610
2454.4520,0.004556
2456.3156,0.004111
2458.1793,0.004259
2460.0430,0.004674
2461.9066,0.004422
2463.7703,0.004170
2465.6340,0.004371
2467.4976,0.004549
2469.3613,0.004697
2471.2250,0.005040
2473.0887,0.005084
2474.9523,0.004754
2476.8160,0.004629
2478.6797,0.004647
2480.5433,0.004697
2482.4070,0.004823
2484.2707,0.005044
2486.1343,0.005087
2487.9980,0.005122
2489.8617,0.005129
2491.7253,0.005001
2493.5890,0.004854
2495.4527,0.005142
2497.3164,0.005550
2499.1800,0.005801
2501.0437,0.005677
2502.9074,0.005612
2504.7710,0.005687
2506.6347,0.005827
2508.4984,0.005866
2510.3620,0.005868
2512.2257,0.005989
2514.0894,0.006104
2515.9530,0.005831
2517.8167,0.005412
2519.6804,0.005388
2521.5440,0.005974
2523.4077,0.006304
2525.2714,0.006102
2527.1351,0.006184
2528.9987,0.006365
2530.8624,0.006031
2532.7261,0.006093
2534.5897,0.006500
2536.4534,0.006440
2538.3171,0.006339
2540.1807,0.006336
2542.0444,0.006299
2543.9081,0.006738
2545.7717,0.007157
2547.6354,0.006956
2549.4991,0.006695
2551.3627,0.006770
2553.2264,0.006790
2555.0901,0.006899
2556.9538,0.006886
2558.8174,0.006877
2560.6811,0.007203
2562.5448,0.007252
2564.4084,0.007085
2566.2721,0.007031
2568.1358,0.007126
2569.9994,0.007471
2571.8631,0.007596
2573.7268,0.007543
2575.5904,0.007508
2577.4541,0.007620
2579.3178,0.007908
2581.1815,0.007991
2583.0451,0.007745
2584.9088,0.007612
2586.7725,0.007826
2588.6361,0.008085
2590.4998,0.008146
2592.3635,0.008131
2594.2271,0.008192
2596.0908,0.008395
2597.9545,0.008631
2599.8181,0.008834
2601.6818,0.008787
2603.5455,0.008735
2605.4091,0.009070
2607.2728,0.009334
2609.1365,0.009252
2611.0002,0.009082
2612.8638,0.009057
