Wavenumber,Intensity
650.4205,0.079600
652.2841,0.077367
654.1478,0.076153
656.0115,0.076003
657.8751,0.074797
659.7388,0.074778
661.6025,0.075348
663.4661,0.074753
665.3298,0.074187
667.1935,0.072982
669.0571,0.074648
670.9208,0.074193
672.7845,0.073193
674.6481,0.071291
676.5118,0.071350
678.3755,0.071664
680.2392,0.070642
682.1028,0.069312
683.9665,0.068716
685.8302,0.069380
687.6938,0.069300
689.5575,0.068152
691.4212,0.068670
693.2848,0.069137
695.1485,0.068547
697.0122,0.067996
698.8758,0.068078
700.7395,0.068137
702.6032,0.067484
704.4669,0.065972
706.3305,0.065186
708.1942,0.064371
710.0579,0.063904
711.9215,0.064022
713.7852,0.063588
715.6489,0.062294
717.5125,0.061889
719.3762,0.062176
721.2399,0.062072
723.1035,0.061117
724.9672,0.059871
726.8309,0.059200
728.6945,0.058803
730.5582,0.058184
732.4219,0.057853
734.2856,0.057894
736.1492,0.057723
738.0129,0.057389
739.8766,0.057389
741.7402,0.057071
743.6039,0.056805
745.4676,0.056668
747.3312,0.056328
749.1949,0.055778
751.0586,0.055931
752.9222,0.055641
754.7859,0.054953
756.6496,0.054885
758.5132,0.054978
760.3769,0.054385
762.2406,0.054031
764.1043,0.054287
765.9679,0.054156
767.8316,0.053465
769.6953,0.053177
771.5589,0.053140
773.4226,0.052733
775.2863,0.052430
777.1499,0.052342
779.0136,0.052387
780.8773,0.052090
782.7409,0.050799
784.6046,0.049812
786.4683,0.049575
788.3320,0.049382
790.1956,0.048520
792.0593,0.047469
793.9230,0.046969
795.7866,0.046350
797.6503,0.045810
799.5140,0.045765
801.3776,0.045565
803.2413,0.044688
805.1050,0.044218
806.9686,0.044255
808.8323,0.044285
810.6960,0.044262
812.5596,0.043710
814.4233,0.043274
816.2870,0.043341
818.1507,0.043241
820.0143,0.042963
821.8780,0.042722
823.7417,0.042344
825.6053,0.041851
827.4690,0.041385
829.3327,0.041009
831.1963,0.040690
833.0600,0.040349
834.9237,0.040053
836.7873,0.040036
838.6510,0.040019
840.5147,0.039755
842.3784,0.039534
844.2420,0.039557
846.1057,0.039692
847.9694,0.040015
849.8330,0.040017
851.6967,0.039954
853.5604,0.040023
855.4240,0.039881
857.2877,0.039531
859.1514,0.038930
861.0150,0.038571
862.8787,0.038392
864.7424,0.038108
866.6060,0.037791
868.4697,0.037538
870.3334,0.037317
872.1971,0.037100
874.0607,0.036997
875.9244,0.036762
877.7881,0.036467
879.6517,0.036135
881.5154,0.035940
883.3791,0.035941
885.2427,0.035833
887.1064,0.035715
888.9701,0.035697
890.8337,0.035741
892.6974,0.036037
894.5611,0.036113
896.4247,0.036055
898.2884,0.036256
900.1521,0.036448
902.0158,0.036446
903.8794,0.036415
905.7431,0.036409
907.6068,0.036464
909.4704,0.036727
911.3341,0.037154
913.1978,0.037588
915.0614,0.038089
916.9251,0.038488
918.7888,0.038706
920.6524,0.039037
922.5161,0.039404
924.3798,0.039570
926.2435,0.039566
928.1071,0.039286
929.9708,0.039150
931.8345,0.038987
933.6981,0.038675
935.5618,0.038411
937.4255,0.038176
939.2891,0.038147
941.1528,0.038408
943.0165,0.038583
944.8801,0.038795
946.7438,0.039033
948.6075,0.039235
950.4711,0.039317
952.3348,0.039323
954.1985,0.039601
956.0622,0.040104
957.9258,0.040623
959.7895,0.041398
961.6532,0.042382
963.5168,0.043457
965.3805,0.044552
967.2442,0.045565
969.1078,0.046386
970.9715,0.047049
972.8352,0.047816
974.6988,0.048768
976.5625,0.049853
978.4262,0.051293
980.2899,0.052946
982.1535,0.054699
984.0172,0.056527
985.8809,0.058277
987.7445,0.060002
989.6082,0.061464
991.4719,0.062628
993.3355,0.063711
995.1992,0.064630
997.0629,0.065506
998.9265,0.066509
1000.7902,0.067557
1002.6539,0.068680
1004.5175,0.069911
1006.3812,0.071251
1008.2449,0.072770
1010.1086,0.074491
1011.9722,0.076339
1013.8359,0.078225
1015.6996,0.080118
1017.5632,0.081690
1019.4269,0.083057
1021.2906,0.084155
1023.1542,0.084872
1025.0179,0.085412
1026.8816,0.085958
1028.7452,0.086439
1030.6089,0.086676
1032.4726,0.086760
1034.3362,0.086795
1036.1999,0.086555
1038.0636,0.086102
1039.9273,0.085390
1041.7909,0.084392
1043.6546,0.083173
1045.5183,0.082077
1047.3819,0.080984
1049.2456,0.080094
1051.1093,0.079494
1052.9729,0.078917
1054.8366,0.078409
1056.7003,0.077881
1058.5639,0.077291
1060.4276,0.076821
1062.2913,0.076432
1064.1550,0.076346
1066.0186,0.076649
1067.8823,0.077155
1069.7460,0.077707
1071.6096,0.078148
1073.4733,0.078381
1075.3370,0.078259
1077.2006,0.077507
1079.0643,0.076221
1080.9280,0.074442
1082.7916,0.072518
1084.6553,0.070399
1086.5190,0.068295
1088.3826,0.066563
1090.2463,0.065160
1092.1100,0.064015
1093.9737,0.063174
1095.8373,0.062533
1097.7010,0.062229
1099.5647,0.062093
1101.4283,0.061956
1103.2920,0.061767
1105.1557,0.061572
1107.0193,0.061425
1108.8830,0.061394
1110.7467,0.061398
1112.6103,0.061306
1114.4740,0.061199
1116.3377,0.060995
1118.2014,0.060642
1120.0650,0.060185
1121.9287,0.059477
1123.7924,0.058589
1125.6560,0.057670
1127.5197,0.056635
1129.3834,0.055578
1131.2470,0.054537
1133.1107,0.053524
1134.9744,0.052865
1136.8380,0.052389
1138.7017,0.052080
1140.5654,0.052069
1142.4290,0.052291
1144.2927,0.052508
1146.1564,0.052698
1148.0201,0.052764
1149.8837,0.052599
1151.7474,0.052164
1153.6111,0.051416
1155.4747,0.050446
1157.3384,0.049409
1159.2021,0.048264
1161.0657,0.047117
1162.9294,0.046061
1164.7931,0.044942
1166.6567,0.043802
1168.5204,0.042685
1170.3841,0.041589
1172.2477,0.040515
1174.1114,0.039389
1175.9751,0.038227
1177.8388,0.037223
1179.7024,0.036463
1181.5661,0.035897
1183.4298,0.035570
1185.2934,0.035422
1187.1571,0.035382
1189.0208,0.035500
1190.8844,0.035698
1192.7481,0.035989
1194.6118,0.036405
1196.4754,0.036911
1198.3391,0.037493
1200.2028,0.037987
1202.0665,0.038476
1203.9301,0.039014
1205.7938,0.039468
1207.6575,0.039751
1209.5211,0.040030
1211.3848,0.040360
1213.2485,0.040705
1215.1121,0.041094
1216.9758,0.041608
1218.8395,0.042164
1220.7031,0.042756
1222.5668,0.043383
1224.4305,0.043982
1226.2941,0.044569
1228.1578,0.045088
1230.0215,0.045501
1231.8852,0.045916
1233.7488,0.046273
1235.6125,0.046518
1237.4762,0.046556
1239.3398,0.046529
1241.2035,0.046447
1243.0672,0.046351
1244.9308,0.046241
1246.7945,0.045985
1248.6582,0.045659
1250.5218,0.045380
1252.3855,0.045145
1254.2492,0.044969
1256.1129,0.044787
1257.9765,0.044467
1259.8402,0.044111
1261.7039,0.043842
1263.5675,0.043582
1265.4312,0.043311
1267.2949,0.043073
1269.1585,0.042823
1271.0222,0.042510
1272.8859,0.042261
1274.7495,0.042041
1276.6132,0.041882
1278.4769,0.041746
1280.3405,0.041596
1282.2042,0.041429
1284.0679,0.041360
1285.9316,0.041326
1287.7952,0.041395
1289.6589,0.041504
1291.5226,0.041599
1293.3862,0.041871
1295.2499,0.042174
1297.1136,0.042378
1298.9772,0.042694
1300.8409,0.043063
1302.7046,0.043388
1304.5682,0.043768
1306.4319,0.044105
1308.2956,0.044340
1310.1592,0.044464
1312.0229,0.044705
1313.8866,0.044925
1315.7503,0.044785
1317.6139,0.044598
1319.4776,0.044472
1321.3413,0.044237
1323.2049,0.043917
1325.0686,0.043590
1326.9323,0.043256
1328.7959,0.043123
1330.6596,0.043133
1332.5233,0.043089
1334.3869,0.043070
1336.2506,0.043392
1338.1143,0.043940
1339.9780,0.044518
1341.8416,0.044822
1343.7053,0.044779
1345.5690,0.044842
1347.4326,0.045009
1349.2963,0.045152
1351.1600,0.045255
1353.0236,0.045361
1354.8873,0.045542
1356.7510,0.045757
1358.6146,0.045957
1360.4783,0.046357
1362.3420,0.047152
1364.2056,0.047902
1366.0693,0.048130
1367.9330,0.048332
1369.7967,0.048681
1371.6603,0.048956
1373.5240,0.049597
1375.3877,0.050476
1377.2513,0.050845
1379.1150,0.051194
1380.9787,0.051449
1382.8423,0.051522
1384.7060,0.051680
1386.5697,0.052246
1388.4333,0.052877
1390.2970,0.052802
1392.1607,0.052765
1394.0244,0.053398
1395.8880,0.054431
1397.7517,0.054881
1399.6154,0.055570
1401.4790,0.055778
1403.3427,0.055536
1405.2064,0.055847
1407.0700,0.056127
1408.9337,0.055883
1410.7974,0.055669
1412.6610,0.055406
1414.5247,0.054818
1416.3884,0.054133
1418.2520,0.053923
1420.1157,0.053810
1421.9794,0.052688
1423.8431,0.051682
1425.7067,0.050978
1427.5704,0.050225
1429.4341,0.049853
1431.2977,0.049589
1433.1614,0.049253
1435.0251,0.049278
1436.8887,0.050398
1438.7524,0.050983
1440.6161,0.050828
1442.4797,0.050858
1444.3434,0.051094
1446.2071,0.051578
1448.0707,0.052371
1449.9344,0.052562
1451.7981,0.052050
1453.6618,0.051496
1455.5254,0.051219
1457.3891,0.051901
1459.2528,0.051148
1461.1164,0.049500
1462.9801,0.048248
1464.8438,0.047651
1466.7074,0.046650
1468.5711,0.045062
1470.4348,0.043565
1472.2984,0.042672
1474.1621,0.041734
1476.0258,0.040541
1477.8895,0.039478
1479.7531,0.038517
1481.6168,0.037896
1483.4805,0.037516
1485.3441,0.037316
1487.2078,0.037720
1489.0715,0.038657
1490.9351,0.039634
1492.7988,0.039972
1494.6625,0.040400
1496.5261,0.041833
1498.3898,0.043468
1500.2535,0.044352
1502.1171,0.044979
1503.9808,0.045703
1505.8445,0.047697
1507.7082,0.052078
1509.5718,0.053615
1511.4355,0.054204
1513.2992,0.055322
1515.1628,0.056444
1517.0265,0.058113
1518.8902,0.059252
1520.7538,0.059861
1522.6175,0.061589
1524.4812,0.062102
1526.3448,0.062952
1528.2085,0.064344
1530.0722,0.065077
1531.9359,0.065595
1533.7995,0.067021
1535.6632,0.067964
1537.5269,0.067669
1539.3905,0.068456
1541.2542,0.070849
1543.1179,0.071273
1544.9815,0.071225
1546.8452,0.070717
1548.7089,0.070011
1550.5725,0.069804
1552.4362,0.069147
1554.2999,0.068304
1556.1635,0.067430
1558.0272,0.066973
1559.8909,0.068714
1561.7546,0.067557
1563.6182,0.065978
1565.4819,0.065525
1567.3456,0.064916
1569.2092,0.064544
1571.0729,0.064829
1572.9366,0.063919
1574.8002,0.063248
1576.6639,0.064223
1578.5276,0.064245
1580.3912,0.063325
1582.2549,0.062945
1584.1186,0.062694
1585.9822,0.062570
1587.8459,0.062380
1589.7096,0.062167
1591.5733,0.062297
1593.4369,0.062726
1595.3006,0.062855
1597.1643,0.062713
1599.0279,0.062461
1600.8916,0.062482
1602.7553,0.062887
1604.6189,0.063476
1606.4826,0.063997
1608.3463,0.064738
1610.2099,0.065677
1612.0736,0.066648
1613.9373,0.067488
1615.8010,0.068711
1617.6646,0.070734
1619.5283,0.071715
1621.3920,0.072163
1623.2556,0.073360
1625.1193,0.074556
1626.9830,0.074939
1628.8466,0.075377
1630.7103,0.075808
1632.5740,0.075845
1634.4376,0.075596
1636.3013,0.075792
1638.1650,0.075616
1640.0286,0.074712
1641.8923,0.073952
1643.7560,0.073176
1645.6197,0.072348
1647.4833,0.071834
1649.3470,0.070957
1651.2107,0.069059
1653.0743,0.067330
1654.9380,0.066315
1656.8017,0.064692
1658.6653,0.062678
1660.5290,0.060636
1662.3927,0.058316
1664.2563,0.056050
1666.1200,0.053959
1667.9837,0.051670
1669.8474,0.049278
1671.7110,0.047121
1673.5747,0.044716
1675.4384,0.042210
1677.3020,0.040181
1679.1657,0.038309
1681.0294,0.036035
1682.8930,0.033290
1684.7567,0.029997
1686.6204,0.028178
1688.4840,0.026529
1690.3477,0.024490
1692.2114,0.022663
1694.0750,0.020823
1695.9387,0.018431
1697.8024,0.016670
1699.6661,0.014482
1701.5297,0.012636
1703.3934,0.012180
1705.2571,0.011141
1707.1207,0.009941
1708.9844,0.009404
1710.8481,0.008932
1712.7117,0.008524
1714.5754,0.008035
1716.4391,0.007282
1718.3027,0.006247
1720.1664,0.006409
1722.0301,0.006429
1723.8937,0.006143
1725.7574,0.006184
1727.6211,0.006343
1729.4848,0.006373
1731.3484,0.006506
1733.2121,0.006197
1735.0758,0.006309
1736.9394,0.007042
1738.8031,0.007219
1740.6668,0.007330
1742.5304,0.007613
1744.3941,0.007571
1746.2578,0.007355
1748.1214,0.006746
1749.9851,0.005661
1751.8488,0.004316
1753.7125,0.003549
1755.5761,0.002864
1757.4398,0.002043
1759.3035,0.001510
1761.1671,0.000896
1763.0308,0.000283
1764.8945,0.000278
1766.7581,0.000140
1768.6218,-0.000147
1770.4855,-0.000397
1772.3491,-0.001011
1774.2128,-0.001074
1776.0765,-0.000618
1777.9401,-0.000530
1779.8038,-0.000708
1781.6675,-0.000683
1783.5312,-0.000764
1785.3948,-0.001003
1787.2585,-0.000769
1789.1222,-0.000723
1790.9858,-0.001092
1792.8495,-0.001336
1794.7132,-0.001203
1796.5768,-0.001015
1798.4405,-0.001032
1800.3042,-0.001482
1802.1678,-0.001560
1804.0315,-0.001381
1805.8952,-0.001464
1807.7589,-0.001574
1809.6225,-0.001528
1811.4862,-0.001610
1813.3499,-0.001673
1815.2135,-0.001850
1817.0772,-0.001917
1818.9409,-0.001673
1820.8045,-0.001430
1822.6682,-0.001645
1824.5319,-0.001994
1826.3955,-0.001822
1828.2592,-0.001688
1830.1229,-0.002032
1831.9865,-0.001902
1833.8502,-0.001807
1835.7139,-0.001987
1837.5776,-0.001942
1839.4412,-0.001673
1841.3049,-0.001604
1843.1686,-0.001915
1845.0322,-0.002343
1846.8959,-0.002130
1848.7596,-0.001884
1850.6232,-0.002174
1852.4869,-0.002376
1854.3506,-0.002190
1856.2142,-0.002049
1858.0779,-0.002181
1859.9416,-0.002352
1861.8052,-0.002387
1863.6689,-0.002233
1865.5326,-0.001773
1867.3963,-0.001843
1869.2599,-0.002349
1871.1236,-0.002376
1872.9873,-0.002277
1874.8509,-0.002058
1876.7146,-0.001912
1878.5783,-0.002111
1880.4419,-0.002196
1882.3056,-0.002212
1884.1693,-0.002171
1886.0329,-0.002118
1887.8966,-0.002110
1889.7603,-0.002242
1891.6240,-0.002252
1893.4876,-0.002263
1895.3513,-0.002306
1897.2150,-0.002407
1899.0786,-0.002358
1900.9423,-0.002357
1902.8060,-0.002457
1904.6696,-0.002193
1906.5333,-0.001928
1908.3970,-0.002468
1910.2606,-0.002732
1912.1243,-0.002359
1913.9880,-0.002330
1915.8516,-0.002890
1917.7153,-0.003164
1919.5790,-0.002660
1921.4427,-0.002250
1923.3063,-0.002566
1925.1700,-0.002619
1927.0337,-0.002207
1928.8973,-0.002197
1930.7610,-0.003094
1932.6247,-0.003254
1934.4883,-0.002467
1936.3520,-0.002399
1938.2157,-0.002837
1940.0793,-0.002833
1941.9430,-0.003287
1943.8067,-0.003702
1945.6704,-0.003060
1947.5340,-0.002130
1949.3977,-0.002111
1951.2614,-0.003140
1953.1250,-0.003941
1954.9887,-0.003988
1956.8524,-0.004016
1958.7160,-0.004150
1960.5797,-0.004402
1962.4434,-0.003873
1964.3070,-0.004347
1966.1707,-0.004920
1968.0344,-0.004606
1969.8980,-0.004843
1971.7617,-0.004365
1973.6254,-0.003881
1975.4891,-0.005236
1977.3527,-0.005256
1979.2164,-0.002795
1981.0801,-0.001931
1982.9437,-0.002318
1984.8074,-0.002845
1986.6711,-0.003871
1988.5347,-0.003666
1990.3984,-0.003441
1992.2621,-0.003497
1994.1257,-0.003290
1995.9894,-0.003311
1997.8531,-0.003946
1999.7167,-0.004473
2001.5804,-0.003875
2003.4441,-0.003489
2005.3078,-0.004033
2007.1714,-0.003810
2009.0351,-0.003243
2010.8988,-0.003452
2012.7624,-0.003745
2014.6261,-0.003630
2016.4898,-0.002999
2018.3534,-0.003863
2020.2171,-0.005506
2022.0808,-0.004670
2023.9444,-0.003401
2025.8081,-0.003890
2027.6718,-0.004018
2029.5355,-0.003660
2031.3991,-0.003865
2033.2628,-0.003968
2035.1265,-0.003069
2036.9901,-0.001859
2038.8538,-0.001604
2040.7175,-0.002208
2042.5811,-0.002631
2044.4448,-0.002871
2046.3085,-0.002245
2048.1721,-0.001441
2050.0358,-0.001010
2051.8995,-0.000880
2053.7631,-0.001403
2055.6268,-0.001493
2057.4905,-0.001329
2059.3542,-0.001112
2061.2178,-0.001411
2063.0815,-0.001491
2064.9452,-0.001365
2066.8088,-0.001354
2068.6725,-0.001012
2070.5362,-0.001287
2072.3998,-0.001843
2074.2635,-0.001326
2076.1272,-0.000723
2077.9908,-0.000399
2079.8545,-0.000293
2081.7182,-0.000372
2083.5819,-0.000126
2085.4455,-0.000125
2087.3092,-0.000752
2089.1729,-0.000827
2091.0365,-0.000708
2092.9002,-0.000975
2094.7639,-0.000816
2096.6275,-0.000738
2098.4912,-0.000690
2100.3549,-0.001028
2102.2185,-0.001699
2104.0822,-0.001106
2105.9459,-0.000365
2107.8095,-0.000618
2109.6732,-0.000824
2111.5369,-0.000369
2113.4006,-0.000003
2115.2642,-0.000078
2117.1279,-0.000363
2118.9916,-0.000784
2120.8552,-0.000840
2122.7189,-0.001048
2124.5826,-0.001532
2126.4462,-0.001833
2128.3099,-0.001843
2130.1736,-0.001600
2132.0372,-0.001839
2133.9009,-0.001892
2135.7646,-0.001331
2137.6282,-0.000939
2139.4919,-0.001922
2141.3556,-0.002593
2143.2193,-0.001811
2145.0829,-0.001866
2146.9466,-0.002649
2148.8103,-0.002913
2150.6739,-0.003143
2152.5376,-0.004451
2154.4013,-0.005438
2156.2649,-0.004886
2158.1286,-0.004086
2159.9923,-0.003629
2161.8559,-0.003481
2163.7196,-0.002881
2165.5833,-0.001821
2167.4470,-0.001815
2169.3106,-0.001548
2171.1743,-0.001916
2173.0380,-0.003196
2174.9016,-0.003121
2176.7653,-0.001480
2178.6290,-0.000073
2180.4926,-0.000697
2182.3563,-0.001965
2184.2200,-0.002201
2186.0836,-0.002277
2187.9473,-0.002407
2189.8110,-0.001267
2191.6746,-0.000525
2193.5383,-0.001170
2195.4020,-0.002106
2197.2657,-0.002416
2199.1293,-0.002051
2200.9930,-0.001542
2202.8567,-0.001225
2204.7203,-0.000053
2206.5840,0.000904
2208.4477,0.000334
2210.3113,-0.000592
2212.1750,-0.001290
2214.0387,-0.001118
2215.9023,-0.000969
2217.7660,-0.001596
2219.6297,-0.001276
2221.4934,-0.000693
2223.3570,-0.001025
2225.2207,-0.001155
2227.0844,-0.000633
2228.9480,-0.000042
2230.8117,-0.000569
2232.6754,-0.000899
2234.5390,-0.000415
2236.4027,-0.000711
2238.2664,-0.000575
2240.1300,-0.000066
2241.9937,-0.000564
2243.8574,-0.001209
2245.7210,-0.000760
2247.5847,-0.000609
2249.4484,-0.000719
2251.3121,-0.000513
2253.1757,-0.000386
2255.0394,0.000155
2256.9031,0.000262
2258.7667,0.000065
2260.6304,0.000201
2262.4941,-0.000237
2264.3577,-0.000763
2266.2214,-0.000245
2268.0851,0.000604
2269.9487,0.000404
2271.8124,-0.000278
2273.6761,-0.000368
2275.5397,0.000376
2277.4034,0.000839
2279.2671,0.000498
2281.1308,0.000515
2282.9944,0.000863
2284.8581,0.000662
2286.7218,0.000514
2288.5854,0.000422
2290.4491,0.000273
2292.3128,0.000335
2294.1764,0.000508
2296.0401,0.000467
2297.9038,0.000214
2299.7674,-0.000213
2301.6311,-0.000414
2303.4948,0.000017
2305.3585,0.000278
2307.2221,0.000071
2309.0858,0.000203
2310.9495,0.000584
2312.8131,0.000226
2314.6768,-0.000247
2316.5405,-0.000006
2318.4041,0.000212
2320.2678,0.000134
2322.1315,0.000472
2323.9951,0.000544
2325.8588,0.000265
2327.7225,0.000308
2329.5861,0.000059
2331.4498,-0.000292
2333.3135,-0.000338
2335.1772,-0.000429
2337.0408,0.000034
2338.9045,0.000630
2340.7682,0.000214
2342.6318,-0.000531
2344.4955,-0.001048
2346.3592,-0.001255
2348.2228,-0.000863
2350.0865,-0.000298
2351.9502,-0.000442
2353.8138,-0.001284
2355.6775,-0.001659
2357.5412,-0.001406
2359.4049,-0.001113
2361.2685,-0.001188
2363.1322,-0.001079
2364.9959,-0.000500
2366.8595,-0.000431
2368.7232,-0.000551
2370.5869,-0.000520
2372.4505,-0.000532
2374.3142,-0.000190
2376.1779,0.000202
2378.0415,0.000358
2379.9052,0.000529
2381.7689,0.000386
2383.6325,0.000165
2385.4962,0.000208
2387.3599,0.000234
2389.2236,0.000337
2391.0872,0.000471
2392.9509,0.000313
2394.8146,-0.000015
2396.6782,-0.000083
2398.5419,0.000271
2400.4056,0.000663
2402.2692,0.000539
2404.1329,0.000385
2405.9966,0.000692
2407.8602,0.000633
2409.7239,0.000425
2411.5876,0.000646
2413.4512,0.000931
2415.3149,0.000981
2417.1786,0.000815
2419.0423,0.000487
2420.9059,0.000361
2422.7696,0.000623
2424.6333,0.000792
2426.4969,0.000847
2428.3606,0.000863
2430.2243,0.000755
2432.0879,0.000871
2433.9516,0.001116
2435.8153,0.001194
2437.6789,0.001165
2439.5426,0.001080
2441.4063,0.000979
2443.2700,0.001033
2445.1336,0.001260
2446.9973,0.001498
2448.8610,0.001488
2450.7246,0.001414
2452.5883,0.001520
2454.4520,0.001434
2456.3156,0.001179
2458.1793,0.001082
2460.0430,0.001140
2461.9066,0.001188
2463.7703,0.001508
2465.6340,0.001718
2467.4976,0.001377
2469.3613,0.001380
2471.2250,0.001620
2473.0887,0.001653
2474.9523,0.001668
2476.8160,0.001631
2478.6797,0.001640
2480.5433,0.001580
2482.4070,0.001683
2484.2707,0.001793
2486.1343,0.001628
2487.9980,0.001805
2489.8617,0.002152
2491.7253,0.002211
2493.5890,0.002121
2495.4527,0.002276
2497.3164,0.002321
2499.1800,0.001951
2501.0437,0.001925
2502.9074,0.002178
2504.7710,0.002418
2506.6347,0.002477
2508.4984,0.002363
2510.3620,0.002406
2512.2257,0.002450
2514.0894,0.002577
2515.9530,0.002650
2517.8167,0.002692
2519.6804,0.002717
2521.5440,0.002644
2523.4077,0.002747
2525.2714,0.002872
2527.1351,0.002809
2528.9987,0.002707
2530.8624,0.002714
2532.7261,0.002675
2534.5897,0.002552
2536.4534,0.002732
2538.3171,0.002937
2540.1807,0.002991
2542.0444,0.003026
2543.9081,0.002916
2545.7717,0.003083
2547.6354,0.003456
2549.4991,0.003448
2551.3627,0.003197
2553.2264,0.002989
2555.0901,0.003457
2556.9538,0.004017
2558.8174,0.003860
2560.6811,0.003505
2562.5448,0.003524
2564.4084,0.003725
2566.2721,0.003722
2568.1358,0.003858
2569.9994,0.004104
2571.8631,0.004166
2573.7268,0.004137
2575.5904,0.004091
2577.4541,0.004205
2579.3178,0.004491
2581.1815,0.004684
2583.0451,0.004639
2584.9088,0.004460
2586.7725,0.004475
2588.6361,0.004674
2590.4998,0.004697
2592.3635,0.004637
2594.2271,0.004935
2596.0908,0.005367
2597.9545,0.005563
