Wavenumber,Intensity
650.4205,0.052730
652.2841,0.051216
654.1478,0.049623
656.0115,0.048660
657.8751,0.050588
659.7388,0.051843
661.6025,0.050092
663.4661,0.048725
665.3298,0.049809
667.1935,0.052030
669.0571,0.051119
670.9208,0.048818
672.7845,0.047691
674.6481,0.047191
676.5118,0.046824
678.3755,0.046110
680.2392,0.047030
682.1028,0.047575
683.9665,0.046306
685.8302,0.045168
687.6938,0.044630
689.5575,0.044816
691.4212,0.044999
693.2848,0.045125
695.1485,0.045476
697.0122,0.044813
698.8758,0.043982
700.7395,0.043414
702.6032,0.042763
704.4669,0.042442
706.3305,0.042064
708.1942,0.041531
710.0579,0.041028
711.9215,0.040661
713.7852,0.040344
715.6489,0.039436
717.5125,0.038417
719.3762,0.037888
721.2399,0.037733
723.1035,0.037840
724.9672,0.037729
726.8309,0.036783
728.6945,0.036175
730.5582,0.036294
732.4219,0.036240
734.2856,0.036010
736.1492,0.035928
738.0129,0.035671
739.8766,0.035375
741.7402,0.035351
743.6039,0.035093
745.4676,0.034430
747.3312,0.033878
749.1949,0.034225
751.0586,0.034388
752.9222,0.033508
754.7859,0.033456
756.6496,0.033814
758.5132,0.032933
760.3769,0.032019
762.2406,0.032053
764.1043,0.032429
765.9679,0.032432
767.8316,0.032119
769.6953,0.031732
771.5589,0.031524
773.4226,0.031249
775.2863,0.030780
777.1499,0.030703
779.0136,0.030938
780.8773,0.030720
782.7409,0.030183
784.6046,0.029916
786.4683,0.029701
788.3320,0.029111
790.1956,0.028474
792.0593,0.028484
793.9230,0.028451
795.7866,0.027599
797.6503,0.027095
799.5140,0.026900
801.3776,0.026710
803.2413,0.027002
805.1050,0.026965
806.9686,0.026566
808.8323,0.026385
810.6960,0.026252
812.5596,0.026261
814.4233,0.026245
816.2870,0.025988
818.1507,0.025743
820.0143,0.025489
821.8780,0.025196
823.7417,0.024943
825.6053,0.024723
827.4690,0.024436
829.3327,0.024115
831.1963,0.023706
833.0600,0.023389
834.9237,0.023309
836.7873,0.023085
838.6510,0.022768
840.5147,0.022337
842.3784,0.021964
844.2420,0.021773
846.1057,0.021559
847.9694,0.021463
849.8330,0.021466
851.6967,0.021436
853.5604,0.021602
855.4240,0.021679
857.2877,0.021466
859.1514,0.021292
861.0150,0.021249
862.8787,0.021219
864.7424,0.021218
866.6060,0.021256
868.4697,0.021325
870.3334,0.021267
872.1971,0.021131
874.0607,0.021139
875.9244,0.021197
877.7881,0.021101
879.6517,0.020948
881.5154,0.020849
883.3791,0.020753
885.2427,0.020605
887.1064,0.020458
888.9701,0.020490
890.8337,0.020689
892.6974,0.020735
894.5611,0.020561
896.4247,0.020415
898.2884,0.020298
900.1521,0.020184
902.0158,0.020123
903.8794,0.019983
905.7431,0.019824
907.6068,0.019841
909.4704,0.020010
911.3341,0.020342
913.1978,0.020726
915.0614,0.020852
916.9251,0.020796
918.7888,0.020928
920.6524,0.021176
922.5161,0.021291
924.3798,0.021359
926.2435,0.021385
928.1071,0.021413
929.9708,0.021526
931.8345,0.021644
933.6981,0.021711
935.5618,0.021710
937.4255,0.021792
939.2891,0.022029
941.1528,0.022336
943.0165,0.022578
944.8801,0.022937
946.7438,0.023427
948.6075,0.023783
950.4711,0.024030
952.3348,0.024267
954.1985,0.024539
956.0622,0.024835
957.9258,0.025301
959.7895,0.026033
961.6532,0.026831
963.5168,0.027581
965.3805,0.028396
967.2442,0.028998
969.1078,0.029299
970.9715,0.029527
972.8352,0.029668
974.6988,0.029783
976.5625,0.030031
978.4262,0.030300
980.2899,0.030666
982.1535,0.031178
984.0172,0.031664
985.8809,0.032167
987.7445,0.032803
989.6082,0.033363
991.4719,0.033830
993.3355,0.034432
995.1992,0.035136
997.0629,0.035688
998.9265,0.036279
1000.7902,0.037010
1002.6539,0.037729
1004.5175,0.038511
1006.3812,0.039475
1008.2449,0.040574
1010.1086,0.041710
1011.9722,0.042949
1013.8359,0.044283
1015.6996,0.045437
1017.5632,0.046637
1019.4269,0.047721
1021.2906,0.048487
1023.1542,0.049084
1025.0179,0.049590
1026.8816,0.050105
1028.7452,0.050688
1030.6089,0.051138
1032.4726,0.051421
1034.3362,0.051669
1036.1999,0.051912
1038.0636,0.052078
1039.9273,0.052083
1041.7909,0.052051
1043.6546,0.051949
1045.5183,0.051913
1047.3819,0.051980
1049.2456,0.052012
1051.1093,0.052070
1052.9729,0.052141
1054.8366,0.052212
1056.7003,0.052410
1058.5639,0.052555
1060.4276,0.052628
1062.2913,0.052776
1064.1550,0.052906
1066.0186,0.053070
1067.8823,0.053280
1069.7460,0.053335
1071.6096,0.053336
1073.4733,0.053297
1075.3370,0.053200
1077.2006,0.052879
1079.0643,0.052113
1080.9280,0.051101
1082.7916,0.049912
1084.6553,0.048618
1086.5190,0.047326
1088.3826,0.046177
1090.2463,0.045121
1092.1100,0.044185
1093.9737,0.043408
1095.8373,0.042708
1097.7010,0.042093
1099.5647,0.041626
1101.4283,0.041165
1103.2920,0.040765
1105.1557,0.040479
1107.0193,0.040271
1108.8830,0.040070
1110.7467,0.039863
1112.6103,0.039740
1114.4740,0.039604
1116.3377,0.039325
1118.2014,0.038957
1120.0650,0.038550
1121.9287,0.038099
1123.7924,0.037622
1125.6560,0.037147
1127.5197,0.036605
1129.3834,0.036011
1131.2470,0.035374
1133.1107,0.034665
1134.9744,0.034043
1136.8380,0.033491
1138.7017,0.032970
1140.5654,0.032515
1142.4290,0.032207
1144.2927,0.032085
1146.1564,0.032099
1148.0201,0.032229
1149.8837,0.032368
1151.7474,0.032482
1153.6111,0.032482
1155.4747,0.032292
1157.3384,0.032065
1159.2021,0.031945
1161.0657,0.031724
1162.9294,0.031347
1164.7931,0.030989
1166.6567,0.030589
1168.5204,0.029979
1170.3841,0.029222
1172.2477,0.028399
1174.1114,0.027463
1175.9751,0.026504
1177.8388,0.025689
1179.7024,0.025034
1181.5661,0.024583
1183.4298,0.024319
1185.2934,0.024259
1187.1571,0.024343
1189.0208,0.024465
1190.8844,0.024556
1192.7481,0.024714
1194.6118,0.025062
1196.4754,0.025455
1198.3391,0.025785
1200.2028,0.026274
1202.0665,0.026910
1203.9301,0.027412
1205.7938,0.027771
1207.6575,0.028166
1209.5211,0.028520
1211.3848,0.028910
1213.2485,0.029317
1215.1121,0.029723
1216.9758,0.030265
1218.8395,0.030890
1220.7031,0.031433
1222.5668,0.031970
1224.4305,0.032482
1226.2941,0.033044
1228.1578,0.033492
1230.0215,0.033834
1231.8852,0.034145
1233.7488,0.034409
1235.6125,0.034584
1237.4762,0.034640
1239.3398,0.034565
1241.2035,0.034377
1243.0672,0.034277
1244.9308,0.034031
1246.7945,0.033615
1248.6582,0.033237
1250.5218,0.032884
1252.3855,0.032592
1254.2492,0.032281
1256.1129,0.031955
1257.9765,0.031659
1259.8402,0.031369
1261.7039,0.031066
1263.5675,0.030847
1265.4312,0.030669
1267.2949,0.030454
1269.1585,0.030337
1271.0222,0.030328
1272.8859,0.030227
1274.7495,0.030162
1276.6132,0.030206
1278.4769,0.030194
1280.3405,0.030048
1282.2042,0.030024
1284.0679,0.030144
1285.9316,0.030294
1287.7952,0.030422
1289.6589,0.030415
1291.5226,0.030440
1293.3862,0.030629
1295.2499,0.030839
1297.1136,0.030932
1298.9772,0.031029
1300.8409,0.031261
1302.7046,0.031361
1304.5682,0.031472
1306.4319,0.031735
1308.2956,0.032015
1310.1592,0.032137
1312.0229,0.032211
1313.8866,0.032186
1315.7503,0.032172
1317.6139,0.032225
1319.4776,0.032158
1321.3413,0.031934
1323.2049,0.031714
1325.0686,0.031519
1326.9323,0.031317
1328.7959,0.031138
1330.6596,0.031223
1332.5233,0.031393
1334.3869,0.031388
1336.2506,0.031445
1338.1143,0.031864
1339.9780,0.032335
1341.8416,0.032449
1343.7053,0.032392
1345.5690,0.032339
1347.4326,0.032327
1349.2963,0.032413
1351.1600,0.032451
1353.0236,0.032435
1354.8873,0.032444
1356.7510,0.032387
1358.6146,0.032447
1360.4783,0.032710
1362.3420,0.033398
1364.2056,0.034272
1366.0693,0.034805
1367.9330,0.035406
1369.7967,0.036049
1371.6603,0.036479
1373.5240,0.037216
1375.3877,0.038144
1377.2513,0.038578
1379.1150,0.039021
1380.9787,0.039417
1382.8423,0.039624
1384.7060,0.039756
1386.5697,0.040260
1388.4333,0.040884
1390.2970,0.040550
1392.1607,0.040295
1394.0244,0.040731
1395.8880,0.041343
1397.7517,0.041273
1399.6154,0.041327
1401.4790,0.041063
1403.3427,0.040497
1405.2064,0.040315
1407.0700,0.039761
1408.9337,0.038974
1410.7974,0.038364
1412.6610,0.037772
1414.5247,0.036997
1416.3884,0.036354
1418.2520,0.036393
1420.1157,0.036645
1421.9794,0.035863
1423.8431,0.035349
1425.7067,0.035220
1427.5704,0.034885
1429.4341,0.035302
1431.2977,0.035923
1433.1614,0.036028
1435.0251,0.036566
1436.8887,0.038307
1438.7524,0.038949
1440.6161,0.038655
1442.4797,0.038817
1444.3434,0.039035
1446.2071,0.039254
1448.0707,0.039451
1449.9344,0.039226
1451.7981,0.038678
1453.6618,0.038329
1455.5254,0.038170
1457.3891,0.038941
1459.2528,0.038032
1461.1164,0.036451
1462.9801,0.035486
1464.8438,0.035313
1466.7074,0.034700
1468.5711,0.033487
1470.4348,0.032413
1472.2984,0.032025
1474.1621,0.031640
1476.0258,0.030802
1477.8895,0.030144
1479.7531,0.029704
1481.6168,0.029769
1483.4805,0.029914
1485.3441,0.030107
1487.2078,0.030965
1489.0715,0.032687
1490.9351,0.034363
1492.7988,0.034799
1494.6625,0.035458
1496.5261,0.037823
1498.3898,0.039898
1500.2535,0.040868
1502.1171,0.041379
1503.9808,0.041877
1505.8445,0.044706
1507.7082,0.049731
1509.5718,0.050673
1511.4355,0.051098
1513.2992,0.051869
1515.1628,0.052580
1517.0265,0.053669
1518.8902,0.054107
1520.7538,0.054737
1522.6175,0.056506
1524.4812,0.056757
1526.3448,0.057268
1528.2085,0.057829
1530.0722,0.057889
1531.9359,0.057977
1533.7995,0.058912
1535.6632,0.058881
1537.5269,0.058044
1539.3905,0.059285
1541.2542,0.060880
1543.1179,0.059852
1544.9815,0.058809
1546.8452,0.057680
1548.7089,0.056282
1550.5725,0.055264
1552.4362,0.053975
1554.2999,0.052374
1556.1635,0.050927
1558.0272,0.050615
1559.8909,0.051436
1561.7546,0.049048
1563.6182,0.046876
1565.4819,0.045804
1567.3456,0.045012
1569.2092,0.044580
1571.0729,0.044206
1572.9366,0.043025
1574.8002,0.042447
1576.6639,0.043122
1578.5276,0.042947
1580.3912,0.042167
1582.2549,0.041926
1584.1186,0.042036
1585.9822,0.042402
1587.8459,0.042780
1589.7096,0.043375
1591.5733,0.044062
1593.4369,0.044697
1595.3006,0.045212
1597.1643,0.045927
1599.0279,0.046861
1600.8916,0.047742
1602.7553,0.048663
1604.6189,0.049870
1606.4826,0.051151
1608.3463,0.052742
1610.2099,0.054156
1612.0736,0.055402
1613.9373,0.056534
1615.8010,0.058247
1617.6646,0.060635
1619.5283,0.061396
1621.3920,0.061964
1623.2556,0.063752
1625.1193,0.064916
1626.9830,0.064890
1628.8466,0.065377
1630.7103,0.065523
1632.5740,0.064912
1634.4376,0.064808
1636.3013,0.065784
1638.1650,0.065211
1640.0286,0.063897
1641.8923,0.063004
1643.7560,0.062016
1645.6197,0.060913
1647.4833,0.060272
1649.3470,0.059290
1651.2107,0.057435
1653.0743,0.056701
1654.9380,0.055829
1656.8017,0.053307
1658.6653,0.051052
1660.5290,0.049170
1662.3927,0.047250
1664.2563,0.045381
1666.1200,0.043367
1667.9837,0.041390
1669.8474,0.039356
1671.7110,0.037454
1673.5747,0.035367
1675.4384,0.033322
1677.3020,0.031391
1679.1657,0.029430
1681.0294,0.027380
1682.8930,0.025029
1684.7567,0.022555
1686.6204,0.020631
1688.4840,0.018332
1690.3477,0.015953
1692.2114,0.013759
1694.0750,0.011497
1695.9387,0.009177
1697.8024,0.007585
1699.6661,0.005393
1701.5297,0.003733
1703.3934,0.002678
1705.2571,0.001483
1707.1207,0.000260
1708.9844,-0.000536
1710.8481,-0.001198
1712.7117,-0.001757
1714.5754,-0.002279
1716.4391,-0.002759
1718.3027,-0.003230
1720.1664,-0.003057
1722.0301,-0.003343
1723.8937,-0.003707
1725.7574,-0.003888
1727.6211,-0.003976
1729.4848,-0.004179
1731.3484,-0.004307
1733.2121,-0.004800
1735.0758,-0.004806
1736.9394,-0.004585
1738.8031,-0.004777
1740.6668,-0.004855
1742.5304,-0.004820
1744.3941,-0.004888
1746.2578,-0.004976
1748.1214,-0.005351
1749.9851,-0.005818
1751.8488,-0.005977
1753.7125,-0.005935
1755.5761,-0.006213
1757.4398,-0.006123
1759.3035,-0.006142
1761.1671,-0.006583
1763.0308,-0.006617
1764.8945,-0.006374
1766.7581,-0.006531
1768.6218,-0.006647
1770.4855,-0.006854
1772.3491,-0.007157
1774.2128,-0.006872
1776.0765,-0.006702
1777.9401,-0.006749
1779.8038,-0.006900
1781.6675,-0.006869
1783.5312,-0.006687
1785.3948,-0.006678
1787.2585,-0.006848
1789.1222,-0.007047
1790.9858,-0.007051
1792.8495,-0.006753
1794.7132,-0.006557
1796.5768,-0.006459
1798.4405,-0.006636
1800.3042,-0.006941
1802.1678,-0.006955
1804.0315,-0.006899
1805.8952,-0.006818
1807.7589,-0.006833
1809.6225,-0.006996
1811.4862,-0.007165
1813.3499,-0.007109
1815.2135,-0.007139
1817.0772,-0.007187
1818.9409,-0.006924
1820.8045,-0.006538
1822.6682,-0.006551
1824.5319,-0.006645
1826.3955,-0.006485
1828.2592,-0.006524
1830.1229,-0.006776
1831.9865,-0.006679
1833.8502,-0.006592
1835.7139,-0.006722
1837.5776,-0.006757
1839.4412,-0.006515
1841.3049,-0.006303
1843.1686,-0.006568
1845.0322,-0.006767
1846.8959,-0.006477
1848.7596,-0.006330
1850.6232,-0.006371
1852.4869,-0.006516
1854.3506,-0.006753
1856.2142,-0.006661
1858.0779,-0.006347
1859.9416,-0.006223
1861.8052,-0.005804
1863.6689,-0.005875
1865.5326,-0.006212
1867.3963,-0.006429
1869.2599,-0.006445
1871.1236,-0.006459
1872.9873,-0.006215
1874.8509,-0.006035
1876.7146,-0.006227
1878.5783,-0.006336
1880.4419,-0.006161
1882.3056,-0.006158
1884.1693,-0.006362
1886.0329,-0.006140
1887.8966,-0.005818
1889.7603,-0.005651
1891.6240,-0.005630
1893.4876,-0.005707
1895.3513,-0.005644
1897.2150,-0.005888
1899.0786,-0.006275
1900.9423,-0.006038
1902.8060,-0.005228
1904.6696,-0.004777
1906.5333,-0.004873
1908.3970,-0.005474
1910.2606,-0.006065
1912.1243,-0.005721
1913.9880,-0.005050
1915.8516,-0.004779
1917.7153,-0.005098
1919.5790,-0.005858
1921.4427,-0.005767
1923.3063,-0.005446
1925.1700,-0.004865
1927.0337,-0.004595
1928.8973,-0.005166
1930.7610,-0.005817
1932.6247,-0.005651
1934.4883,-0.004911
1936.3520,-0.004646
1938.2157,-0.005306
1940.0793,-0.004849
1941.9430,-0.003832
1943.8067,-0.004338
1945.6704,-0.004620
1947.5340,-0.004256
1949.3977,-0.003981
1951.2614,-0.004630
1953.1250,-0.005087
1954.9887,-0.004764
1956.8524,-0.004036
1958.7160,-0.003573
1960.5797,-0.003440
1962.4434,-0.003743
1964.3070,-0.004252
1966.1707,-0.004276
1968.0344,-0.003586
1969.8980,-0.003121
1971.7617,-0.003474
1973.6254,-0.003512
1975.4891,-0.002230
1977.3527,-0.001233
1979.2164,-0.000907
1981.0801,-0.001820
1982.9437,-0.003112
1984.8074,-0.003448
1986.6711,-0.002698
1988.5347,-0.001610
1990.3984,-0.001897
1992.2621,-0.002522
1994.1257,-0.003189
1995.9894,-0.003346
1997.8531,-0.003174
1999.7167,-0.003044
2001.5804,-0.002419
2003.4441,-0.002378
2005.3078,-0.002994
2007.1714,-0.002129
2009.0351,-0.001250
2010.8988,-0.002250
2012.7624,-0.002932
2014.6261,-0.001899
2016.4898,-0.001052
2018.3534,-0.001064
2020.2171,-0.001547
2022.0808,-0.001970
2023.9444,-0.001560
2025.8081,-0.001925
2027.6718,-0.001882
2029.5355,-0.001264
2031.3991,-0.002450
2033.2628,-0.002087
2035.1265,0.000397
2036.9901,0.000327
2038.8538,-0.000714
2040.7175,-0.000724
2042.5811,-0.000915
2044.4448,-0.000911
2046.3085,-0.000530
2048.1721,-0.000060
2050.0358,-0.000665
2051.8995,-0.001431
2053.7631,-0.001337
2055.6268,-0.001446
2057.4905,-0.002036
2059.3542,-0.001913
2061.2178,-0.001410
2063.0815,-0.001629
2064.9452,-0.001899
2066.8088,-0.001837
2068.6725,-0.002084
2070.5362,-0.001840
2072.3998,-0.001297
2074.2635,-0.001585
2076.1272,-0.002270
2077.9908,-0.001937
2079.8545,-0.001250
2081.7182,-0.001240
2083.5819,-0.001838
2085.4455,-0.002615
2087.3092,-0.002824
2089.1729,-0.002224
2091.0365,-0.002441
2092.9002,-0.003170
2094.7639,-0.002756
2096.6275,-0.001970
2098.4912,-0.001641
2100.3549,-0.001554
2102.2185,-0.001475
2104.0822,-0.001401
2105.9459,-0.001365
2107.8095,-0.001310
2109.6732,-0.001727
2111.5369,-0.002106
2113.4006,-0.002149
2115.2642,-0.002172
2117.1279,-0.001881
2118.9916,-0.001790
2120.8552,-0.002388
2122.7189,-0.002656
2124.5826,-0.002590
2126.4462,-0.003053
2128.3099,-0.003191
2130.1736,-0.002791
2132.0372,-0.002129
2133.9009,-0.001824
2135.7646,-0.002055
2137.6282,-0.002260
2139.4919,-0.002424
2141.3556,-0.002665
2143.2193,-0.002538
2145.0829,-0.001998
2146.9466,-0.001834
2148.8103,-0.001352
2150.6739,-0.000728
2152.5376,-0.001000
2154.4013,-0.001546
2156.2649,-0.001476
2158.1286,0.000482
2159.9923,0.003324
2161.8559,0.003162
2163.7196,0.000892
2165.5833,-0.000148
2167.4470,0.001123
2169.3106,0.002273
2171.1743,0.001219
2173.0380,0.000566
2174.9016,0.000854
2176.7653,-0.000220
2178.6290,-0.000661
2180.4926,-0.000117
2182.3563,-0.000421
2184.2200,-0.000130
2186.0836,0.000858
2187.9473,0.001052
2189.8110,0.000855
2191.6746,0.000367
2193.5383,0.000163
2195.4020,0.000477
2197.2657,0.000261
2199.1293,0.000401
2200.9930,0.000845
2202.8567,0.000386
2204.7203,0.000172
2206.5840,-0.000204
2208.4477,-0.000519
2210.3113,0.000259
2212.1750,0.000513
2214.0387,0.000228
2215.9023,0.000087
2217.7660,-0.000421
2219.6297,-0.000623
2221.4934,-0.000461
2223.3570,-0.000188
2225.2207,-0.000103
2227.0844,-0.000421
2228.9480,-0.000360
2230.8117,0.000153
2232.6754,-0.000019
2234.5390,-0.000717
2236.4027,-0.000896
2238.2664,-0.000861
2240.1300,-0.000497
2241.9937,-0.000121
2243.8574,-0.000882
2245.7210,-0.001599
2247.5847,-0.001458
2249.4484,-0.001367
2251.3121,-0.001039
2253.1757,-0.001036
2255.0394,-0.001170
2256.9031,-0.000928
2258.7667,-0.001094
2260.6304,-0.001372
2262.4941,-0.001318
2264.3577,-0.000924
2266.2214,-0.000821
2268.0851,-0.001193
2269.9487,-0.001345
2271.8124,-0.000914
2273.6761,-0.000530
2275.5397,-0.000928
2277.4034,-0.001292
2279.2671,-0.001274
2281.1308,-0.001192
2282.9944,-0.001016
2284.8581,-0.001040
2286.7218,-0.001120
2288.5854,-0.001040
2290.4491,-0.001321
2292.3128,-0.001722
2294.1764,-0.001834
2296.0401,-0.001829
2297.9038,-0.002062
2299.7674,-0.002143
2301.6311,-0.001872
2303.4948,-0.001936
2305.3585,-0.002109
2307.2221,-0.002009
2309.0858,-0.002090
2310.9495,-0.002451
2312.8131,-0.002224
2314.6768,-0.001349
2316.5405,-0.001198
2318.4041,-0.002023
2320.2678,-0.001946
2322.1315,-0.001107
2323.9951,-0.001225
2325.8588,-0.002184
2327.7225,-0.002841
2329.5861,-0.002793
2331.4498,-0.002593
2333.3135,-0.002600
2335.1772,-0.002744
2337.0408,-0.003013
2338.9045,-0.003268
2340.7682,-0.003048
2342.6318,-0.002658
2344.4955,-0.002495
2346.3592,-0.002463
2348.2228,-0.002701
2350.0865,-0.003167
2351.9502,-0.003638
2353.8138,-0.003796
2355.6775,-0.003570
2357.5412,-0.002939
2359.4049,-0.002495
2361.2685,-0.002474
2363.1322,-0.002359
2364.9959,-0.002185
2366.8595,-0.002057
2368.7232,-0.002385
2370.5869,-0.002854
2372.4505,-0.002716
2374.3142,-0.002683
2376.1779,-0.002954
2378.0415,-0.002921
2379.9052,-0.002646
2381.7689,-0.002625
2383.6325,-0.002753
2385.4962,-0.002823
2387.3599,-0.002937
2389.2236,-0.003014
2391.0872,-0.003032
2392.9509,-0.002895
2394.8146,-0.002664
2396.6782,-0.002559
2398.5419,-0.002493
2400.4056,-0.002630
2402.2692,-0.002773
2404.1329,-0.002726
2405.9966,-0.002538
2407.8602,-0.002413
2409.7239,-0.002490
2411.5876,-0.002475
2413.4512,-0.002423
2415.3149,-0.002140
2417.1786,-0.001935
2419.0423,-0.002182
2420.9059,-0.002382
2422.7696,-0.002253
2424.6333,-0.001977
2426.4969,-0.002166
2428.3606,-0.002121
2430.2243,-0.001569
2432.0879,-0.001425
2433.9516,-0.001531
2435.8153,-0.001535
2437.6789,-0.001513
2439.5426,-0.001658
2441.4063,-0.001701
2443.2700,-0.001708
2445.1336,-0.001675
2446.9973,-0.001471
2448.8610,-0.001445
2450.7246,-0.001423
2452.5883,-0.001335
2454.4520,-0.001375
2456.3156,-0.001426
2458.1793,-0.001401
2460.0430,-0.001543
2461.9066,-0.001511
2463.7703,-0.001432
2465.6340,-0.001570
2467.4976,-0.001570
2469.3613,-0.001360
2471.2250,-0.001109
2473.0887,-0.001027
2474.9523,-0.001321
2476.8160,-0.001458
2478.6797,-0.001511
2480.5433,-0.001449
2482.4070,-0.001320
2484.2707,-0.001381
2486.1343,-0.001634
2487.9980,-0.001816
2489.8617,-0.001516
2491.7253,-0.001134
2493.5890,-0.001066
2495.4527,-0.001044
2497.3164,-0.000985
2499.1800,-0.000880
2501.0437,-0.000903
2502.9074,-0.001069
2504.7710,-0.001095
2506.6347,-0.001100
2508.4984,-0.000976
2510.3620,-0.000873
2512.2257,-0.001104
2514.0894,-0.001107
2515.9530,-0.000810
2517.8167,-0.000747
2519.6804,-0.000879
2521.5440,-0.000839
2523.4077,-0.000596
2525.2714,-0.000434
2527.1351,-0.000623
2528.9987,-0.000867
2530.8624,-0.000795
2532.7261,-0.000460
2534.5897,-0.000257
2536.4534,-0.000245
2538.3171,-0.000310
2540.1807,-0.000367
2542.0444,-0.000630
2543.9081,-0.000633
2545.7717,-0.000119
2547.6354,0.000098
2549.4991,-0.000140
2551.3627,-0.000495
2553.2264,-0.000808
2555.0901,-0.000573
2556.9538,-0.000095
2558.8174,-0.000178
2560.6811,-0.000544
2562.5448,-0.000389
2564.4084,-0.000431
2566.2721,-0.000539
2568.1358,-0.000206
2569.9994,0.000163
2571.8631,-0.000012
2573.7268,-0.000085
2575.5904,0.000200
2577.4541,0.000170
2579.3178,0.000238
2581.1815,0.000483
2583.0451,0.000508
