Wavenumber,Intensity
650.4205,0.091781
652.2841,0.086510
654.1478,0.086276
656.0115,0.089010
657.8751,0.089271
659.7388,0.087133
661.6025,0.088076
663.4661,0.089182
665.3298,0.086797
667.1935,0.085455
669.0571,0.088855
670.9208,0.087727
672.7845,0.086606
674.6481,0.086142
676.5118,0.084642
678.3755,0.082782
680.2392,0.081400
682.1028,0.080490
683.9665,0.080158
685.8302,0.079620
687.6938,0.079754
689.5575,0.079289
691.4212,0.078603
693.2848,0.078917
695.1485,0.078861
697.0122,0.077919
698.8758,0.076870
700.7395,0.076486
702.6032,0.075612
704.4669,0.074239
706.3305,0.073274
708.1942,0.071983
710.0579,0.070584
711.9215,0.069854
713.7852,0.069268
715.6489,0.068829
717.5125,0.068434
719.3762,0.067629
721.2399,0.066671
723.1035,0.065887
724.9672,0.065886
726.8309,0.065515
728.6945,0.064321
730.5582,0.063475
732.4219,0.063090
734.2856,0.062862
736.1492,0.062810
738.0129,0.062170
739.8766,0.061318
741.7402,0.061745
743.6039,0.062107
745.4676,0.061447
747.3312,0.060994
749.1949,0.060581
751.0586,0.059632
752.9222,0.058950
754.7859,0.058874
756.6496,0.058508
758.5132,0.057806
760.3769,0.057638
762.2406,0.057758
764.1043,0.057636
765.9679,0.057360
767.8316,0.056890
769.6953,0.056466
771.5589,0.056240
773.4226,0.055233
775.2863,0.053783
777.1499,0.053379
779.0136,0.053836
780.8773,0.053848
782.7409,0.053053
784.6046,0.052302
786.4683,0.051975
788.3320,0.051699
790.1956,0.051171
792.0593,0.050381
793.9230,0.049885
795.7866,0.049459
797.6503,0.049203
799.5140,0.049275
801.3776,0.049095
803.2413,0.048947
805.1050,0.049149
806.9686,0.049190
808.8323,0.048733
810.6960,0.048540
812.5596,0.048521
814.4233,0.048101
816.2870,0.048042
818.1507,0.047991
820.0143,0.047633
821.8780,0.047259
823.7417,0.046283
825.6053,0.045214
827.4690,0.044652
829.3327,0.043961
831.1963,0.042942
833.0600,0.041793
834.9237,0.041185
836.7873,0.041037
838.6510,0.040666
840.5147,0.039899
842.3784,0.039036
844.2420,0.038488
846.1057,0.038217
847.9694,0.038037
849.8330,0.037845
851.6967,0.037733
853.5604,0.037842
855.4240,0.038031
857.2877,0.038047
859.1514,0.038086
861.0150,0.038276
862.8787,0.038398
864.7424,0.038664
866.6060,0.039151
868.4697,0.039702
870.3334,0.039971
872.1971,0.039885
874.0607,0.039727
875.9244,0.039634
877.7881,0.039492
879.6517,0.039300
881.5154,0.039123
883.3791,0.038905
885.2427,0.038583
887.1064,0.038508
888.9701,0.038780
890.8337,0.039027
892.6974,0.038884
894.5611,0.038705
896.4247,0.038834
898.2884,0.038789
900.1521,0.038526
902.0158,0.038441
903.8794,0.038294
905.7431,0.038026
907.6068,0.038068
909.4704,0.038337
911.3341,0.038608
913.1978,0.038937
915.0614,0.039295
916.9251,0.039629
918.7888,0.039837
920.6524,0.039994
922.5161,0.040171
924.3798,0.040299
926.2435,0.040460
928.1071,0.040631
929.9708,0.040750
931.8345,0.040924
933.6981,0.041233
935.5618,0.041659
937.4255,0.042216
939.2891,0.042814
941.1528,0.043462
943.0165,0.044174
944.8801,0.044755
946.7438,0.045334
948.6075,0.045665
950.4711,0.045781
952.3348,0.046098
954.1985,0.046538
956.0622,0.047186
957.9258,0.048152
959.7895,0.049385
961.6532,0.050787
963.5168,0.052138
965.3805,0.053293
967.2442,0.053946
969.1078,0.054096
970.9715,0.054066
972.8352,0.054086
974.6988,0.054248
976.5625,0.054702
978.4262,0.055428
980.2899,0.056272
982.1535,0.057182
984.0172,0.058118
985.8809,0.059144
987.7445,0.060201
989.6082,0.061193
991.4719,0.062149
993.3355,0.062980
995.1992,0.063910
997.0629,0.064930
998.9265,0.065725
1000.7902,0.066433
1002.6539,0.067281
1004.5175,0.068256
1006.3812,0.069378
1008.2449,0.070824
1010.1086,0.072541
1011.9722,0.074194
1013.8359,0.075802
1015.6996,0.077377
1017.5632,0.078626
1019.4269,0.079507
1021.2906,0.080140
1023.1542,0.080615
1025.0179,0.081004
1026.8816,0.081372
1028.7452,0.081750
1030.6089,0.081896
1032.4726,0.081902
1034.3362,0.081746
1036.1999,0.081384
1038.0636,0.080934
1039.9273,0.080290
1041.7909,0.079503
1043.6546,0.078888
1045.5183,0.078464
1047.3819,0.078063
1049.2456,0.077706
1051.1093,0.077550
1052.9729,0.077403
1054.8366,0.077270
1056.7003,0.077120
1058.5639,0.076997
1060.4276,0.076874
1062.2913,0.076613
1064.1550,0.076390
1066.0186,0.076358
1067.8823,0.076316
1069.7460,0.076106
1071.6096,0.075716
1073.4733,0.075104
1075.3370,0.074175
1077.2006,0.072805
1079.0643,0.071179
1080.9280,0.069408
1082.7916,0.067412
1084.6553,0.065383
1086.5190,0.063378
1088.3826,0.061485
1090.2463,0.059879
1092.1100,0.058470
1093.9737,0.057290
1095.8373,0.056394
1097.7010,0.055537
1099.5647,0.054810
1101.4283,0.054388
1103.2920,0.054048
1105.1557,0.053743
1107.0193,0.053619
1108.8830,0.053489
1110.7467,0.053339
1112.6103,0.053230
1114.4740,0.053050
1116.3377,0.052795
1118.2014,0.052477
1120.0650,0.052081
1121.9287,0.051666
1123.7924,0.051147
1125.6560,0.050616
1127.5197,0.050123
1129.3834,0.049548
1131.2470,0.048829
1133.1107,0.048138
1134.9744,0.047550
1136.8380,0.046922
1138.7017,0.046365
1140.5654,0.046003
1142.4290,0.045745
1144.2927,0.045613
1146.1564,0.045652
1148.0201,0.045741
1149.8837,0.045902
1151.7474,0.046146
1153.6111,0.046218
1155.4747,0.046114
1157.3384,0.046105
1159.2021,0.046049
1161.0657,0.045731
1162.9294,0.045257
1164.7931,0.044831
1166.6567,0.044267
1168.5204,0.043301
1170.3841,0.042229
1172.2477,0.041184
1174.1114,0.039923
1175.9751,0.038609
1177.8388,0.037544
1179.7024,0.036762
1181.5661,0.036340
1183.4298,0.036245
1185.2934,0.036356
1187.1571,0.036677
1189.0208,0.037242
1190.8844,0.037930
1192.7481,0.038684
1194.6118,0.039546
1196.4754,0.040446
1198.3391,0.041467
1200.2028,0.042576
1202.0665,0.043510
1203.9301,0.044357
1205.7938,0.045294
1207.6575,0.046114
1209.5211,0.046743
1211.3848,0.047292
1213.2485,0.047846
1215.1121,0.048515
1216.9758,0.049191
1218.8395,0.049808
1220.7031,0.050305
1222.5668,0.050741
1224.4305,0.051146
1226.2941,0.051524
1228.1578,0.051738
1230.0215,0.051937
1231.8852,0.052087
1233.7488,0.052026
1235.6125,0.051786
1237.4762,0.051568
1239.3398,0.051391
1241.2035,0.051094
1243.0672,0.050739
1244.9308,0.050369
1246.7945,0.049893
1248.6582,0.049396
1250.5218,0.048920
1252.3855,0.048375
1254.2492,0.047840
1256.1129,0.047355
1257.9765,0.046794
1259.8402,0.046295
1261.7039,0.045873
1263.5675,0.045435
1265.4312,0.045087
1267.2949,0.044818
1269.1585,0.044549
1271.0222,0.044300
1272.8859,0.044063
1274.7495,0.043852
1276.6132,0.043686
1278.4769,0.043510
1280.3405,0.043380
1282.2042,0.043315
1284.0679,0.043270
1285.9316,0.043265
1287.7952,0.043332
1289.6589,0.043472
1291.5226,0.043610
1293.3862,0.043661
1295.2499,0.043717
1297.1136,0.043984
1298.9772,0.044310
1300.8409,0.044558
1302.7046,0.044706
1304.5682,0.044851
1306.4319,0.045057
1308.2956,0.045241
1310.1592,0.045300
1312.0229,0.045407
1313.8866,0.045364
1315.7503,0.045199
1317.6139,0.045117
1319.4776,0.044975
1321.3413,0.044539
1323.2049,0.044072
1325.0686,0.043825
1326.9323,0.043501
1328.7959,0.043107
1330.6596,0.042925
1332.5233,0.042795
1334.3869,0.042627
1336.2506,0.042629
1338.1143,0.043068
1339.9780,0.043699
1341.8416,0.043705
1343.7053,0.043392
1345.5690,0.043271
1347.4326,0.043340
1349.2963,0.043525
1351.1600,0.043552
1353.0236,0.043710
1354.8873,0.044271
1356.7510,0.044591
1358.6146,0.044581
1360.4783,0.045233
1362.3420,0.046727
1364.2056,0.047897
1366.0693,0.048404
1367.9330,0.049187
1369.7967,0.049851
1371.6603,0.050240
1373.5240,0.051224
1375.3877,0.052093
1377.2513,0.051985
1379.1150,0.052089
1380.9787,0.052177
1382.8423,0.051864
1384.7060,0.051597
1386.5697,0.052120
1388.4333,0.052548
1390.2970,0.051668
1392.1607,0.050893
1394.0244,0.051211
1395.8880,0.051724
1397.7517,0.051595
1399.6154,0.051779
1401.4790,0.051033
1403.3427,0.050349
1405.2064,0.050348
1407.0700,0.049700
1408.9337,0.048811
1410.7974,0.048318
1412.6610,0.047719
1414.5247,0.046802
1416.3884,0.046197
1418.2520,0.046988
1420.1157,0.047775
1421.9794,0.046717
1423.8431,0.046460
1425.7067,0.046471
1427.5704,0.046278
1429.4341,0.046847
1431.2977,0.047083
1433.1614,0.046838
1435.0251,0.047549
1436.8887,0.049897
1438.7524,0.049804
1440.6161,0.048910
1442.4797,0.048917
1444.3434,0.048768
1446.2071,0.048855
1448.0707,0.049244
1449.9344,0.048790
1451.7981,0.047515
1453.6618,0.046285
1455.5254,0.046297
1457.3891,0.048806
1459.2528,0.047700
1461.1164,0.045311
1462.9801,0.044429
1464.8438,0.045078
1466.7074,0.044403
1468.5711,0.042743
1470.4348,0.041802
1472.2984,0.042755
1474.1621,0.043205
1476.0258,0.042414
1477.8895,0.041772
1479.7531,0.041623
1481.6168,0.042159
1483.4805,0.042372
1485.3441,0.042764
1487.2078,0.044506
1489.0715,0.047694
1490.9351,0.050315
1492.7988,0.050222
1494.6625,0.051008
1496.5261,0.054715
1498.3898,0.057386
1500.2535,0.057816
1502.1171,0.057262
1503.9808,0.057245
1505.8445,0.062153
1507.7082,0.069296
1509.5718,0.068642
1511.4355,0.068413
1513.2992,0.068854
1515.1628,0.069102
1517.0265,0.070076
1518.8902,0.070156
1520.7538,0.071239
1522.6175,0.073256
1524.4812,0.072784
1526.3448,0.073367
1528.2085,0.073467
1530.0722,0.072766
1531.9359,0.072672
1533.7995,0.073792
1535.6632,0.072585
1537.5269,0.070743
1539.3905,0.072262
1541.2542,0.074256
1543.1179,0.072863
1544.9815,0.071345
1546.8452,0.069304
1548.7089,0.067391
1550.5725,0.065905
1552.4362,0.063612
1554.2999,0.061347
1556.1635,0.059435
1558.0272,0.059744
1559.8909,0.060991
1561.7546,0.057289
1563.6182,0.054374
1565.4819,0.052733
1567.3456,0.051445
1569.2092,0.050814
1571.0729,0.049666
1572.9366,0.047674
1574.8002,0.047253
1576.6639,0.048010
1578.5276,0.046995
1580.3912,0.045726
1582.2549,0.045268
1584.1186,0.045211
1585.9822,0.045292
1587.8459,0.045496
1589.7096,0.046042
1591.5733,0.046562
1593.4369,0.047231
1595.3006,0.048461
1597.1643,0.049619
1599.0279,0.050735
1600.8916,0.052424
1602.7553,0.054128
1604.6189,0.055692
1606.4826,0.057674
1608.3463,0.060255
1610.2099,0.062513
1612.0736,0.063835
1613.9373,0.064785
1615.8010,0.067946
1617.6646,0.072259
1619.5283,0.072880
1621.3920,0.073431
1623.2556,0.075957
1625.1193,0.077578
1626.9830,0.078343
1628.8466,0.079209
1630.7103,0.078616
1632.5740,0.077674
1634.4376,0.078088
1636.3013,0.079841
1638.1650,0.078846
1640.0286,0.077013
1641.8923,0.075282
1643.7560,0.073352
1645.6197,0.072482
1647.4833,0.072148
1649.3470,0.069865
1651.2107,0.067324
1653.0743,0.067787
1654.9380,0.066527
1656.8017,0.063296
1658.6653,0.060601
1660.5290,0.058171
1662.3927,0.055947
1664.2563,0.053644
1666.1200,0.050846
1667.9837,0.048480
1669.8474,0.046584
1671.7110,0.044761
1673.5747,0.042817
1675.4384,0.041207
1677.3020,0.039044
1679.1657,0.036466
1681.0294,0.034154
1682.8930,0.032319
1684.7567,0.031151
1686.6204,0.029168
1688.4840,0.026793
1690.3477,0.024663
1692.2114,0.022569
1694.0750,0.020296
1695.9387,0.018173
1697.8024,0.016158
1699.6661,0.014058
1701.5297,0.012736
1703.3934,0.011381
1705.2571,0.010223
1707.1207,0.009400
1708.9844,0.008751
1710.8481,0.007881
1712.7117,0.006857
1714.5754,0.006252
1716.4391,0.006342
1718.3027,0.006226
1720.1664,0.005756
1722.0301,0.005140
1723.8937,0.004808
1725.7574,0.004361
1727.6211,0.004084
1729.4848,0.003915
1731.3484,0.003667
1733.2121,0.003167
1735.0758,0.003562
1736.9394,0.003743
1738.8031,0.003483
1740.6668,0.003048
1742.5304,0.002639
1744.3941,0.002345
1746.2578,0.002220
1748.1214,0.002116
1749.9851,0.001994
1751.8488,0.001544
1753.7125,0.001042
1755.5761,0.000761
1757.4398,0.000837
1759.3035,0.000608
1761.1671,0.000322
1763.0308,0.000381
1764.8945,0.000474
1766.7581,0.000299
1768.6218,0.000240
1770.4855,0.000199
1772.3491,0.000359
1774.2128,0.000379
1776.0765,0.000041
1777.9401,-0.000092
1779.8038,0.000069
1781.6675,0.000268
1783.5312,0.000226
1785.3948,0.000248
1787.2585,0.000152
1789.1222,-0.000223
1790.9858,-0.000276
1792.8495,0.000028
1794.7132,0.000056
1796.5768,-0.000062
1798.4405,-0.000186
1800.3042,-0.000264
1802.1678,-0.000114
1804.0315,-0.000002
1805.8952,-0.000019
1807.7589,-0.000126
1809.6225,-0.000232
1811.4862,-0.000377
1813.3499,-0.000391
1815.2135,-0.000248
1817.0772,-0.000095
1818.9409,0.000064
1820.8045,0.000144
1822.6682,-0.000037
1824.5319,-0.000018
1826.3955,0.000095
1828.2592,0.000090
1830.1229,0.000224
1831.9865,0.000538
1833.8502,0.000473
1835.7139,0.000131
1837.5776,-0.000136
1839.4412,0.000026
1841.3049,0.000246
1843.1686,0.000422
1845.0322,0.000347
1846.8959,0.000179
1848.7596,0.000084
1850.6232,0.000153
1852.4869,0.000382
1854.3506,0.000679
1856.2142,0.000895
1858.0779,0.000943
1859.9416,0.000810
1861.8052,0.000738
1863.6689,0.000509
1865.5326,0.000286
1867.3963,0.000337
1869.2599,0.000695
1871.1236,0.001181
1872.9873,0.001326
1874.8509,0.001115
1876.7146,0.001052
1878.5783,0.000899
1880.4419,0.000573
1882.3056,0.000528
1884.1693,0.000690
1886.0329,0.000764
1887.8966,0.000605
1889.7603,0.000560
1891.6240,0.000945
1893.4876,0.001196
1895.3513,0.001331
1897.2150,0.001018
1899.0786,0.000430
1900.9423,0.000664
1902.8060,0.001587
1904.6696,0.001573
1906.5333,0.001158
1908.3970,0.000616
1910.2606,0.000596
1912.1243,0.001302
1913.9880,0.001331
1915.8516,0.000710
1917.7153,0.000571
1919.5790,0.000715
1921.4427,0.000341
1923.3063,0.000406
1925.1700,0.001221
1927.0337,0.001517
1928.8973,0.001410
1930.7610,0.001217
1932.6247,0.001302
1934.4883,0.001801
1936.3520,0.001901
1938.2157,0.001568
1940.0793,0.001485
1941.9430,0.001487
1943.8067,0.001535
1945.6704,0.002084
1947.5340,0.002643
1949.3977,0.002361
1951.2614,0.002721
1953.1250,0.003355
1954.9887,0.003285
1956.8524,0.002653
1958.7160,0.002134
1960.5797,0.001653
1962.4434,0.002875
1964.3070,0.004475
1966.1707,0.004247
1968.0344,0.003683
1969.8980,0.004073
1971.7617,0.004531
1973.6254,0.005289
1975.4891,0.005864
1977.3527,0.005622
1979.2164,0.004584
1981.0801,0.004220
1982.9437,0.004137
1984.8074,0.003711
1986.6711,0.003696
1988.5347,0.004414
1990.3984,0.004699
1992.2621,0.004459
1994.1257,0.004640
1995.9894,0.005152
1997.8531,0.004844
1999.7167,0.003868
2001.5804,0.002982
2003.4441,0.002878
2005.3078,0.004018
2007.1714,0.004710
2009.0351,0.004528
2010.8988,0.004364
2012.7624,0.003621
2014.6261,0.003843
2016.4898,0.005469
2018.3534,0.005893
2020.2171,0.005241
2022.0808,0.005120
2023.9444,0.004798
2025.8081,0.004926
2027.6718,0.005892
2029.5355,0.005790
2031.3991,0.005513
2033.2628,0.005242
2035.1265,0.004967
2036.9901,0.005665
2038.8538,0.006613
2040.7175,0.006534
2042.5811,0.006292
2044.4448,0.006892
2046.3085,0.006526
2048.1721,0.005782
2050.0358,0.006535
2051.8995,0.007054
2053.7631,0.006354
2055.6268,0.005934
2057.4905,0.006028
2059.3542,0.006086
2061.2178,0.005788
2063.0815,0.005651
2064.9452,0.006121
2066.8088,0.006155
2068.6725,0.005476
2070.5362,0.005367
2072.3998,0.006079
2074.2635,0.006546
2076.1272,0.006028
2077.9908,0.005499
2079.8545,0.005235
2081.7182,0.004577
2083.5819,0.004379
2085.4455,0.004294
2087.3092,0.003598
2089.1729,0.003462
2091.0365,0.004476
2092.9002,0.005119
2094.7639,0.004835
2096.6275,0.004751
2098.4912,0.005348
2100.3549,0.005623
2102.2185,0.005253
2104.0822,0.005239
2105.9459,0.005347
2107.8095,0.005195
2109.6732,0.005011
2111.5369,0.005001
2113.4006,0.005073
2115.2642,0.004928
2117.1279,0.004261
2118.9916,0.003528
2120.8552,0.003094
2122.7189,0.003122
2124.5826,0.003516
2126.4462,0.003402
2128.3099,0.003156
2130.1736,0.003175
2132.0372,0.003466
2133.9009,0.003821
2135.7646,0.004013
2137.6282,0.004637
2139.4919,0.005312
2141.3556,0.005698
2143.2193,0.004969
2145.0829,0.003640
2146.9466,0.003390
2148.8103,0.004097
2150.6739,0.004357
2152.5376,0.003698
2154.4013,0.004141
2156.2649,0.005579
2158.1286,0.007284
2159.9923,0.008201
2161.8559,0.007771
2163.7196,0.008070
2165.5833,0.008041
2167.4470,0.007912
2169.3106,0.008206
2171.1743,0.007872
2173.0380,0.007476
2174.9016,0.006949
2176.7653,0.006084
2178.6290,0.005241
2180.4926,0.005959
2182.3563,0.007729
2184.2200,0.007894
2186.0836,0.007071
2187.9473,0.006689
2189.8110,0.007051
2191.6746,0.006983
2193.5383,0.006416
2195.4020,0.005580
2197.2657,0.005141
2199.1293,0.005389
2200.9930,0.005977
2202.8567,0.006997
2204.7203,0.006808
2206.5840,0.005350
2208.4477,0.004829
2210.3113,0.005040
2212.1750,0.005312
2214.0387,0.005114
2215.9023,0.004751
2217.7660,0.005638
2219.6297,0.006059
2221.4934,0.005580
2223.3570,0.005824
2225.2207,0.006414
2227.0844,0.006007
2228.9480,0.005532
2230.8117,0.005779
2232.6754,0.006031
2234.5390,0.005787
2236.4027,0.005094
2238.2664,0.005291
2240.1300,0.005470
2241.9937,0.004929
2243.8574,0.004915
2245.7210,0.005065
2247.5847,0.005342
2249.4484,0.005666
2251.3121,0.005564
2253.1757,0.004998
2255.0394,0.004537
2256.9031,0.004958
2258.7667,0.005341
2260.6304,0.004989
2262.4941,0.005098
2264.3577,0.005700
2266.2214,0.005626
2268.0851,0.005021
2269.9487,0.004728
2271.8124,0.004835
2273.6761,0.004672
2275.5397,0.004688
2277.4034,0.004991
2279.2671,0.005328
2281.1308,0.005916
2282.9944,0.006024
2284.8581,0.005869
2286.7218,0.005767
2288.5854,0.005420
2290.4491,0.005148
2292.3128,0.004875
2294.1764,0.004524
2296.0401,0.004326
2297.9038,0.004334
2299.7674,0.004378
2301.6311,0.004545
2303.4948,0.004671
2305.3585,0.004512
2307.2221,0.004564
2309.0858,0.004659
2310.9495,0.004430
2312.8131,0.004659
2314.6768,0.005109
2316.5405,0.004886
2318.4041,0.004339
2320.2678,0.004303
2322.1315,0.004934
2323.9951,0.005316
2325.8588,0.004975
2327.7225,0.004462
2329.5861,0.004227
2331.4498,0.004200
2333.3135,0.003791
2335.1772,0.003143
2337.0408,0.003401
2338.9045,0.004042
2340.7682,0.004385
2342.6318,0.004752
2344.4955,0.004747
2346.3592,0.004426
2348.2228,0.003790
2350.0865,0.002981
2351.9502,0.002561
2353.8138,0.002698
2355.6775,0.003478
2357.5412,0.004578
2359.4049,0.004855
2361.2685,0.004821
2363.1322,0.004917
2364.9959,0.004963
2366.8595,0.005035
2368.7232,0.005132
2370.5869,0.004990
2372.4505,0.004806
2374.3142,0.004800
2376.1779,0.004793
2378.0415,0.004895
2379.9052,0.004728
2381.7689,0.004132
2383.6325,0.003737
2385.4962,0.003740
2387.3599,0.003733
2389.2236,0.003526
2391.0872,0.003292
2392.9509,0.003524
2394.8146,0.003998
2396.6782,0.004074
2398.5419,0.003896
2400.4056,0.003694
2402.2692,0.003831
2404.1329,0.004175
2405.9966,0.004217
2407.8602,0.004130
2409.7239,0.004076
2411.5876,0.004105
2413.4512,0.004255
2415.3149,0.004316
2417.1786,0.004438
2419.0423,0.004308
2420.9059,0.004318
2422.7696,0.004518
2424.6333,0.004498
2426.4969,0.004383
2428.3606,0.004503
2430.2243,0.004657
2432.0879,0.004791
2433.9516,0.004832
2435.8153,0.004507
2437.6789,0.004587
2439.5426,0.005078
2441.4063,0.005219
2443.2700,0.005312
2445.1336,0.005371
2446.9973,0.005202
2448.8610,0.005198
2450.7246,0.005159
2452.5883,0.005095
2454.4520,0.005068
2456.3156,0.005114
2458.1793,0.005224
2460.0430,0.005212
2461.9066,0.005211
2463.7703,0.005319
2465.6340,0.005481
2467.4976,0.005531
2469.3613,0.005463
2471.2250,0.005321
2473.0887,0.005245
2474.9523,0.005446
2476.8160,0.005617
2478.6797,0.005259
2480.5433,0.004929
2482.4070,0.005234
2484.2707,0.005635
2486.1343,0.005943
2487.9980,0.005943
2489.8617,0.005698
2491.7253,0.005852
2493.5890,0.006090
2495.4527,0.006153
2497.3164,0.006195
2499.1800,0.005911
2501.0437,0.005629
2502.9074,0.005610
2504.7710,0.005731
2506.6347,0.005806
2508.4984,0.005879
2510.3620,0.006071
2512.2257,0.006273
2514.0894,0.006280
2515.9530,0.006210
2517.8167,0.006156
2519.6804,0.006219
2521.5440,0.006583
2523.4077,0.006806
2525.2714,0.006666
2527.1351,0.006479
2528.9987,0.006538
2530.8624,0.006465
2532.7261,0.006260
2534.5897,0.006347
2536.4534,0.006611
2538.3171,0.006646
2540.1807,0.006578
2542.0444,0.006623
2543.9081,0.006667
2545.7717,0.006846
2547.6354,0.006970
2549.4991,0.007004
2551.3627,0.007297
2553.2264,0.007290
2555.0901,0.007019
2556.9538,0.007087
2558.8174,0.007135
2560.6811,0.006986
2562.5448,0.006927
2564.4084,0.007097
2566.2721,0.007414
2568.1358,0.007606
2569.9994,0.007439
2571.8631,0.007392
2573.7268,0.007338
2575.5904,0.007308
2577.4541,0.007652
2579.3178,0.007747
2581.1815,0.007651
2583.0451,0.007826
2584.9088,0.007711
2586.7725,0.007614
2588.6361,0.007954
2590.4998,0.008031
2592.3635,0.008169
2594.2271,0.008208
2596.0908,0.008179
2597.9545,0.008195
2599.8181,0.008083
2601.6818,0.008052
2603.5455,0.008215
2605.4091,0.008280
2607.2728,0.008335
2609.1365,0.008617
2611.0002,0.008699
2612.8638,0.008622
2614.7275,0.008984
2616.5912,0.009164
2618.4548,0.009012
2620.3185,0.008934
2622.1822,0.009035
2624.0458,0.009197
