Wavenumber,Intensity
650.4205,0.015794
652.2841,0.014408
654.1478,0.011324
656.0115,0.013250
657.8751,0.014333
659.7388,0.011383
661.6025,0.009953
663.4661,0.011110
665.3298,0.010926
667.1935,0.009179
669.0571,0.008900
670.9208,0.010646
672.7845,0.011737
674.6481,0.011750
676.5118,0.009907
678.3755,0.008167
680.2392,0.007827
682.1028,0.008878
683.9665,0.009882
685.8302,0.008429
687.6938,0.007945
689.5575,0.008420
691.4212,0.008405
693.2848,0.008253
695.1485,0.007358
697.0122,0.006957
698.8758,0.007155
700.7395,0.007642
702.6032,0.007581
704.4669,0.006988
706.3305,0.006679
708.1942,0.005999
710.0579,0.005624
711.9215,0.005928
713.7852,0.006046
715.6489,0.005746
717.5125,0.005594
719.3762,0.005409
721.2399,0.004915
723.1035,0.005277
724.9672,0.005012
726.8309,0.003641
728.6945,0.003636
730.5582,0.004098
732.4219,0.003776
734.2856,0.003577
736.1492,0.003741
738.0129,0.003953
739.8766,0.004020
741.7402,0.004104
743.6039,0.004562
745.4676,0.004880
747.3312,0.004471
749.1949,0.004229
751.0586,0.004372
752.9222,0.004136
754.7859,0.003890
756.6496,0.003946
758.5132,0.004091
760.3769,0.003968
762.2406,0.004181
764.1043,0.004585
765.9679,0.004292
767.8316,0.004289
769.6953,0.004493
771.5589,0.004382
773.4226,0.004575
775.2863,0.004796
777.1499,0.004535
779.0136,0.004265
780.8773,0.004315
782.7409,0.004156
784.6046,0.003939
786.4683,0.004019
788.3320,0.003968
790.1956,0.003617
792.0593,0.003641
793.9230,0.004199
795.7866,0.004062
797.6503,0.003720
799.5140,0.004053
801.3776,0.004342
803.2413,0.004368
805.1050,0.004535
806.9686,0.004736
808.8323,0.004990
810.6960,0.005333
812.5596,0.005128
814.4233,0.004676
816.2870,0.004595
818.1507,0.004336
820.0143,0.004082
821.8780,0.004011
823.7417,0.003791
825.6053,0.003500
827.4690,0.003686
829.3327,0.003903
831.1963,0.003622
833.0600,0.003385
834.9237,0.003309
836.7873,0.003504
838.6510,0.003596
840.5147,0.003379
842.3784,0.003256
844.2420,0.003219
846.1057,0.003597
847.9694,0.004038
849.8330,0.003924
851.6967,0.003942
853.5604,0.004201
855.4240,0.004229
857.2877,0.004367
859.1514,0.004848
861.0150,0.005308
862.8787,0.005492
864.7424,0.005692
866.6060,0.005958
868.4697,0.006238
870.3334,0.006569
872.1971,0.006715
874.0607,0.006699
875.9244,0.006791
877.7881,0.006770
879.6517,0.006606
881.5154,0.006475
883.3791,0.006546
885.2427,0.006724
887.1064,0.006833
888.9701,0.007062
890.8337,0.007337
892.6974,0.007477
894.5611,0.007491
896.4247,0.007401
898.2884,0.007322
900.1521,0.007361
902.0158,0.007576
903.8794,0.007818
905.7431,0.007900
907.6068,0.008026
909.4704,0.008171
911.3341,0.008348
913.1978,0.008629
915.0614,0.008788
916.9251,0.008924
918.7888,0.009211
920.6524,0.009514
922.5161,0.009627
924.3798,0.009688
926.2435,0.009807
928.1071,0.009904
929.9708,0.010014
931.8345,0.010270
933.6981,0.010547
935.5618,0.010506
937.4255,0.010513
939.2891,0.010747
941.1528,0.010994
943.0165,0.011267
944.8801,0.011625
946.7438,0.011899
948.6075,0.011962
950.4711,0.012005
952.3348,0.012194
954.1985,0.012496
956.0622,0.012814
957.9258,0.013337
959.7895,0.013977
961.6532,0.014546
963.5168,0.015049
965.3805,0.015415
967.2442,0.015589
969.1078,0.015633
970.9715,0.015718
972.8352,0.015901
974.6988,0.016196
976.5625,0.016569
978.4262,0.017006
980.2899,0.017456
982.1535,0.017844
984.0172,0.018229
985.8809,0.018697
987.7445,0.019137
989.6082,0.019524
991.4719,0.019889
993.3355,0.020236
995.1992,0.020538
997.0629,0.020778
998.9265,0.021004
1000.7902,0.021289
1002.6539,0.021625
1004.5175,0.022061
1006.3812,0.022627
1008.2449,0.023333
1010.1086,0.024026
1011.9722,0.024596
1013.8359,0.025199
1015.6996,0.025834
1017.5632,0.026388
1019.4269,0.026730
1021.2906,0.026889
1023.1542,0.027021
1025.0179,0.027186
1026.8816,0.027295
1028.7452,0.027405
1030.6089,0.027531
1032.4726,0.027584
1034.3362,0.027669
1036.1999,0.027612
1038.0636,0.027429
1039.9273,0.027344
1041.7909,0.027121
1043.6546,0.026823
1045.5183,0.026722
1047.3819,0.026652
1049.2456,0.026637
1051.1093,0.026642
1052.9729,0.026584
1054.8366,0.026570
1056.7003,0.026534
1058.5639,0.026483
1060.4276,0.026399
1062.2913,0.026268
1064.1550,0.026197
1066.0186,0.026183
1067.8823,0.026104
1069.7460,0.025954
1071.6096,0.025648
1073.4733,0.025118
1075.3370,0.024589
1077.2006,0.024171
1079.0643,0.023626
1080.9280,0.022892
1082.7916,0.022162
1084.6553,0.021532
1086.5190,0.020898
1088.3826,0.020289
1090.2463,0.019903
1092.1100,0.019541
1093.9737,0.019093
1095.8373,0.018804
1097.7010,0.018598
1099.5647,0.018321
1101.4283,0.018029
1103.2920,0.017922
1105.1557,0.017970
1107.0193,0.017937
1108.8830,0.017884
1110.7467,0.017794
1112.6103,0.017705
1114.4740,0.017713
1116.3377,0.017666
1118.2014,0.017495
1120.0650,0.017241
1121.9287,0.017008
1123.7924,0.016795
1125.6560,0.016627
1127.5197,0.016539
1129.3834,0.016485
1131.2470,0.016344
1133.1107,0.016174
1134.9744,0.016121
1136.8380,0.015996
1138.7017,0.015824
1140.5654,0.015824
1142.4290,0.015978
1144.2927,0.016140
1146.1564,0.016245
1148.0201,0.016396
1149.8837,0.016577
1151.7474,0.016764
1153.6111,0.016910
1155.4747,0.016894
1157.3384,0.016847
1159.2021,0.016791
1161.0657,0.016618
1162.9294,0.016479
1164.7931,0.016327
1166.6567,0.015989
1168.5204,0.015593
1170.3841,0.015235
1172.2477,0.014775
1174.1114,0.014169
1175.9751,0.013682
1177.8388,0.013375
1179.7024,0.013082
1181.5661,0.012867
1183.4298,0.012958
1185.2934,0.013160
1187.1571,0.013242
1189.0208,0.013304
1190.8844,0.013448
1192.7481,0.013759
1194.6118,0.014218
1196.4754,0.014610
1198.3391,0.015009
1200.2028,0.015393
1202.0665,0.015793
1203.9301,0.016158
1205.7938,0.016417
1207.6575,0.016569
1209.5211,0.016685
1211.3848,0.016863
1213.2485,0.017069
1215.1121,0.017342
1216.9758,0.017634
1218.8395,0.017913
1220.7031,0.018125
1222.5668,0.018276
1224.4305,0.018498
1226.2941,0.018713
1228.1578,0.018880
1230.0215,0.018959
1231.8852,0.019067
1233.7488,0.019181
1235.6125,0.019147
1237.4762,0.019077
1239.3398,0.018976
1241.2035,0.018808
1243.0672,0.018692
1244.9308,0.018591
1246.7945,0.018395
1248.6582,0.018126
1250.5218,0.017852
1252.3855,0.017607
1254.2492,0.017443
1256.1129,0.017336
1257.9765,0.017227
1259.8402,0.017111
1261.7039,0.016918
1263.5675,0.016762
1265.4312,0.016707
1267.2949,0.016634
1269.1585,0.016494
1271.0222,0.016361
1272.8859,0.016269
1274.7495,0.016147
1276.6132,0.015929
1278.4769,0.015695
1280.3405,0.015613
1282.2042,0.015611
1284.0679,0.015509
1285.9316,0.015344
1287.7952,0.015268
1289.6589,0.015255
1291.5226,0.015276
1293.3862,0.015315
1295.2499,0.015406
1297.1136,0.015456
1298.9772,0.015510
1300.8409,0.015651
1302.7046,0.015831
1304.5682,0.016030
1306.4319,0.016184
1308.2956,0.016239
1310.1592,0.016237
1312.0229,0.016289
1313.8866,0.016268
1315.7503,0.016078
1317.6139,0.015911
1319.4776,0.015872
1321.3413,0.015817
1323.2049,0.015724
1325.0686,0.015803
1326.9323,0.015813
1328.7959,0.015603
1330.6596,0.015547
1332.5233,0.015761
1334.3869,0.015818
1336.2506,0.015609
1338.1143,0.015602
1339.9780,0.015892
1341.8416,0.016008
1343.7053,0.016091
1345.5690,0.016131
1347.4326,0.015956
1349.2963,0.015831
1351.1600,0.015737
1353.0236,0.015610
1354.8873,0.015609
1356.7510,0.015691
1358.6146,0.015710
1360.4783,0.015895
1362.3420,0.016539
1364.2056,0.017168
1366.0693,0.017297
1367.9330,0.017529
1369.7967,0.017820
1371.6603,0.017957
1373.5240,0.018339
1375.3877,0.018719
1377.2513,0.018756
1379.1150,0.018837
1380.9787,0.018890
1382.8423,0.018659
1384.7060,0.018438
1386.5697,0.018791
1388.4333,0.019222
1390.2970,0.018886
1392.1607,0.018627
1394.0244,0.018919
1395.8880,0.019343
1397.7517,0.019314
1399.6154,0.019380
1401.4790,0.019249
1403.3427,0.019102
1405.2064,0.019256
1407.0700,0.019285
1408.9337,0.019150
1410.7974,0.019149
1412.6610,0.018881
1414.5247,0.018432
1416.3884,0.018077
1418.2520,0.018458
1420.1157,0.019036
1421.9794,0.018616
1423.8431,0.018592
1425.7067,0.018762
1427.5704,0.018665
1429.4341,0.019062
1431.2977,0.019323
1433.1614,0.019068
1435.0251,0.019116
1436.8887,0.020019
1438.7524,0.020223
1440.6161,0.019875
1442.4797,0.019604
1444.3434,0.019276
1446.2071,0.019166
1448.0707,0.019275
1449.9344,0.019036
1451.7981,0.018284
1453.6618,0.017426
1455.5254,0.017066
1457.3891,0.017785
1459.2528,0.017502
1461.1164,0.016495
1462.9801,0.015688
1464.8438,0.015447
1466.7074,0.015252
1468.5711,0.014417
1470.4348,0.013514
1472.2984,0.013390
1474.1621,0.013319
1476.0258,0.012983
1477.8895,0.012792
1479.7531,0.012673
1481.6168,0.012725
1483.4805,0.012799
1485.3441,0.012866
1487.2078,0.013251
1489.0715,0.014208
1490.9351,0.015259
1492.7988,0.015402
1494.6625,0.015541
1496.5261,0.016883
1498.3898,0.018128
1500.2535,0.018503
1502.1171,0.018286
1503.9808,0.018094
1505.8445,0.019538
1507.7082,0.022008
1509.5718,0.021915
1511.4355,0.021858
1513.2992,0.021909
1515.1628,0.021843
1517.0265,0.022027
1518.8902,0.022173
1520.7538,0.022419
1522.6175,0.022859
1524.4812,0.022629
1526.3448,0.022554
1528.2085,0.022491
1530.0722,0.022305
1531.9359,0.022215
1533.7995,0.022335
1535.6632,0.021553
1537.5269,0.020711
1539.3905,0.021270
1541.2542,0.021887
1543.1179,0.021327
1544.9815,0.020616
1546.8452,0.019740
1548.7089,0.019014
1550.5725,0.018512
1552.4362,0.017790
1554.2999,0.016942
1556.1635,0.016080
1558.0272,0.015936
1559.8909,0.016575
1561.7546,0.015524
1563.6182,0.014478
1565.4819,0.013928
1567.3456,0.013601
1569.2092,0.013454
1571.0729,0.013278
1572.9366,0.012558
1574.8002,0.012218
1576.6639,0.012773
1578.5276,0.012660
1580.3912,0.012207
1582.2549,0.012175
1584.1186,0.012114
1585.9822,0.012186
1587.8459,0.012330
1589.7096,0.012250
1591.5733,0.012263
1593.4369,0.012501
1595.3006,0.012659
1597.1643,0.012701
1599.0279,0.012853
1600.8916,0.013003
1602.7553,0.013178
1604.6189,0.013207
1606.4826,0.013246
1608.3463,0.013650
1610.2099,0.013902
1612.0736,0.013970
1613.9373,0.014228
1615.8010,0.014965
1617.6646,0.016016
1619.5283,0.016138
1621.3920,0.016119
1623.2556,0.016506
1625.1193,0.016796
1626.9830,0.017156
1628.8466,0.017940
1630.7103,0.017890
1632.5740,0.017161
1634.4376,0.017371
1636.3013,0.018569
1638.1650,0.018163
1640.0286,0.017565
1641.8923,0.017097
1643.7560,0.016540
1645.6197,0.016413
1647.4833,0.016342
1649.3470,0.015594
1651.2107,0.015064
1653.0743,0.016136
1654.9380,0.016445
1656.8017,0.015531
1658.6653,0.014842
1660.5290,0.014343
1662.3927,0.013966
1664.2563,0.013465
1666.1200,0.012587
1667.9837,0.011780
1669.8474,0.011282
1671.7110,0.010842
1673.5747,0.010202
1675.4384,0.009709
1677.3020,0.009221
1679.1657,0.008341
1681.0294,0.007185
1682.8930,0.006085
1684.7567,0.005797
1686.6204,0.005471
1688.4840,0.004815
1690.3477,0.004058
1692.2114,0.003141
1694.0750,0.001920
1695.9387,0.000880
1697.8024,0.000117
1699.6661,-0.000808
1701.5297,-0.001308
1703.3934,-0.002065
1705.2571,-0.002930
1707.1207,-0.003346
1708.9844,-0.003489
1710.8481,-0.003688
1712.7117,-0.004111
1714.5754,-0.004609
1716.4391,-0.004921
1718.3027,-0.004812
1720.1664,-0.004651
1722.0301,-0.004760
1723.8937,-0.004769
1725.7574,-0.004765
1727.6211,-0.004787
1729.4848,-0.004793
1731.3484,-0.004778
1733.2121,-0.005034
1735.0758,-0.004647
1736.9394,-0.004114
1738.8031,-0.003947
1740.6668,-0.003495
1742.5304,-0.003226
1744.3941,-0.003145
1746.2578,-0.003289
1748.1214,-0.003862
1749.9851,-0.004260
1751.8488,-0.004515
1753.7125,-0.004888
1755.5761,-0.005642
1757.4398,-0.006274
1759.3035,-0.006606
1761.1671,-0.006970
1763.0308,-0.007073
1764.8945,-0.007153
1766.7581,-0.007314
1768.6218,-0.007297
1770.4855,-0.007390
1772.3491,-0.007647
1774.2128,-0.007464
1776.0765,-0.007373
1777.9401,-0.007273
1779.8038,-0.007148
1781.6675,-0.007159
1783.5312,-0.007249
1785.3948,-0.007240
1787.2585,-0.007070
1789.1222,-0.007191
1790.9858,-0.007655
1792.8495,-0.007789
1794.7132,-0.007283
1796.5768,-0.006924
1798.4405,-0.007097
1800.3042,-0.007340
1802.1678,-0.007237
1804.0315,-0.007164
1805.8952,-0.007086
1807.7589,-0.007099
1809.6225,-0.007141
1811.4862,-0.007174
1813.3499,-0.007133
1815.2135,-0.007065
1817.0772,-0.007001
1818.9409,-0.006831
1820.8045,-0.006698
1822.6682,-0.006910
1824.5319,-0.007096
1826.3955,-0.006924
1828.2592,-0.007054
1830.1229,-0.006974
1831.9865,-0.006604
1833.8502,-0.006372
1835.7139,-0.006068
1837.5776,-0.006245
1839.4412,-0.006365
1841.3049,-0.006497
1843.1686,-0.006775
1845.0322,-0.006434
1846.8959,-0.006252
1848.7596,-0.006214
1850.6232,-0.006166
1852.4869,-0.006247
1854.3506,-0.006025
1856.2142,-0.006016
1858.0779,-0.006536
1859.9416,-0.006614
1861.8052,-0.006320
1863.6689,-0.005947
1865.5326,-0.005648
1867.3963,-0.005725
1869.2599,-0.006175
1871.1236,-0.006296
1872.9873,-0.005922
1874.8509,-0.005934
1876.7146,-0.006147
1878.5783,-0.006002
1880.4419,-0.005963
1882.3056,-0.005994
1884.1693,-0.005934
1886.0329,-0.005917
1887.8966,-0.006014
1889.7603,-0.006119
1891.6240,-0.006297
1893.4876,-0.005936
1895.3513,-0.005456
1897.2150,-0.005426
1899.0786,-0.005112
1900.9423,-0.005194
1902.8060,-0.005533
1904.6696,-0.005365
1906.5333,-0.005367
1908.3970,-0.005546
1910.2606,-0.005524
1912.1243,-0.005188
1913.9880,-0.005070
1915.8516,-0.005112
1917.7153,-0.004778
1919.5790,-0.005032
1921.4427,-0.005865
1923.3063,-0.006366
1925.1700,-0.005932
1927.0337,-0.004974
1928.8973,-0.004334
1930.7610,-0.004312
1932.6247,-0.005075
1934.4883,-0.005590
1936.3520,-0.005759
1938.2157,-0.005337
1940.0793,-0.004630
1941.9430,-0.004538
1943.8067,-0.004378
1945.6704,-0.004459
1947.5340,-0.004336
1949.3977,-0.004614
1951.2614,-0.005978
1953.1250,-0.005521
1954.9887,-0.004599
1956.8524,-0.004607
1958.7160,-0.004267
1960.5797,-0.003715
1962.4434,-0.003775
1964.3070,-0.003348
1966.1707,-0.002116
1968.0344,-0.003567
1969.8980,-0.004894
1971.7617,-0.003935
1973.6254,-0.003288
1975.4891,-0.002406
1977.3527,-0.000824
1979.2164,-0.000696
1981.0801,-0.001976
1982.9437,-0.002950
1984.8074,-0.003177
1986.6711,-0.003221
1988.5347,-0.003333
1990.3984,-0.003162
1992.2621,-0.003048
1994.1257,-0.002497
1995.9894,-0.001422
1997.8531,-0.002521
1999.7167,-0.004119
2001.5804,-0.003969
2003.4441,-0.003388
2005.3078,-0.002712
2007.1714,-0.002710
2009.0351,-0.003464
2010.8988,-0.003206
2012.7624,-0.002166
2014.6261,-0.002286
2016.4898,-0.004020
2018.3534,-0.004740
2020.2171,-0.003473
2022.0808,-0.003010
2023.9444,-0.003727
2025.8081,-0.003151
2027.6718,-0.001800
2029.5355,-0.002137
2031.3991,-0.003193
2033.2628,-0.002209
2035.1265,-0.001638
2036.9901,-0.002278
2038.8538,-0.002168
2040.7175,-0.001783
2042.5811,-0.001546
2044.4448,-0.001463
2046.3085,-0.002183
2048.1721,-0.002765
2050.0358,-0.002489
2051.8995,-0.002935
2053.7631,-0.002990
2055.6268,-0.002809
2057.4905,-0.003298
2059.3542,-0.003941
2061.2178,-0.004043
2063.0815,-0.003574
2064.9452,-0.003429
2066.8088,-0.003299
2068.6725,-0.003643
2070.5362,-0.004040
2072.3998,-0.003892
2074.2635,-0.003885
2076.1272,-0.004044
2077.9908,-0.004093
2079.8545,-0.003602
2081.7182,-0.003270
2083.5819,-0.004003
2085.4455,-0.004536
2087.3092,-0.004283
2089.1729,-0.004253
2091.0365,-0.004819
2092.9002,-0.005312
2094.7639,-0.004618
2096.6275,-0.003837
2098.4912,-0.003533
2100.3549,-0.002941
2102.2185,-0.003319
2104.0822,-0.004336
2105.9459,-0.004568
2107.8095,-0.004204
2109.6732,-0.004134
2111.5369,-0.004243
2113.4006,-0.004142
2115.2642,-0.003958
2117.1279,-0.004296
2118.9916,-0.004929
2120.8552,-0.004940
2122.7189,-0.004455
2124.5826,-0.004081
2126.4462,-0.004509
2128.3099,-0.005059
2130.1736,-0.005129
2132.0372,-0.004989
2133.9009,-0.004556
2135.7646,-0.004023
2137.6282,-0.003829
2139.4919,-0.004126
2141.3556,-0.004027
2143.2193,-0.003779
2145.0829,-0.003031
2146.9466,-0.002020
2148.8103,-0.002829
2150.6739,-0.004765
2152.5376,-0.005416
2154.4013,-0.004857
2156.2649,-0.004080
2158.1286,-0.002214
2159.9923,-0.000020
2161.8559,-0.000471
2163.7196,-0.001610
2165.5833,-0.001304
2167.4470,-0.000737
2169.3106,-0.000931
2171.1743,-0.001977
2173.0380,-0.002323
2174.9016,-0.001698
2176.7653,-0.001111
2178.6290,-0.001738
2180.4926,-0.002317
2182.3563,-0.001376
2184.2200,-0.001307
2186.0836,-0.002647
2187.9473,-0.002363
2189.8110,-0.001616
2191.6746,-0.002661
2193.5383,-0.002982
2195.4020,-0.001908
2197.2657,-0.001385
2199.1293,-0.001616
2200.9930,-0.001638
2202.8567,-0.001846
2204.7203,-0.002591
2206.5840,-0.002965
2208.4477,-0.003000
2210.3113,-0.003143
2212.1750,-0.003662
2214.0387,-0.004054
2215.9023,-0.003559
2217.7660,-0.002912
2219.6297,-0.002581
2221.4934,-0.002346
2223.3570,-0.002588
2225.2207,-0.002823
2227.0844,-0.002669
2228.9480,-0.002715
2230.8117,-0.003135
2232.6754,-0.003141
2234.5390,-0.002398
2236.4027,-0.002357
2238.2664,-0.003119
2240.1300,-0.003653
2241.9937,-0.003274
2243.8574,-0.002752
2245.7210,-0.002450
2247.5847,-0.002000
2249.4484,-0.002530
2251.3121,-0.003317
2253.1757,-0.003502
2255.0394,-0.003333
2256.9031,-0.003098
2258.7667,-0.003032
2260.6304,-0.002802
2262.4941,-0.002705
2264.3577,-0.002845
2266.2214,-0.002847
2268.0851,-0.002841
2269.9487,-0.002922
2271.8124,-0.002840
2273.6761,-0.003065
2275.5397,-0.003299
2277.4034,-0.003039
2279.2671,-0.002744
2281.1308,-0.002556
2282.9944,-0.002560
2284.8581,-0.002686
2286.7218,-0.002929
2288.5854,-0.003347
2290.4491,-0.003412
2292.3128,-0.003259
2294.1764,-0.003541
2296.0401,-0.003576
2297.9038,-0.003254
2299.7674,-0.003425
2301.6311,-0.003554
2303.4948,-0.003423
2305.3585,-0.003514
2307.2221,-0.003741
2309.0858,-0.003990
2310.9495,-0.003919
2312.8131,-0.003709
2314.6768,-0.003522
2316.5405,-0.003218
2318.4041,-0.003037
2320.2678,-0.002947
2322.1315,-0.002749
2323.9951,-0.002610
2325.8588,-0.003047
2327.7225,-0.003975
2329.5861,-0.004770
2331.4498,-0.004874
2333.3135,-0.004439
2335.1772,-0.004253
2337.0408,-0.004150
2338.9045,-0.003789
2340.7682,-0.003241
2342.6318,-0.003374
2344.4955,-0.004066
2346.3592,-0.004151
2348.2228,-0.004289
2350.0865,-0.004607
2351.9502,-0.004645
2353.8138,-0.004332
2355.6775,-0.003991
2357.5412,-0.004035
2359.4049,-0.004232
2361.2685,-0.003770
2363.1322,-0.003354
2364.9959,-0.003401
2366.8595,-0.003830
2368.7232,-0.004269
2370.5869,-0.004101
2372.4505,-0.003709
2374.3142,-0.003722
2376.1779,-0.003806
2378.0415,-0.003681
2379.9052,-0.003737
2381.7689,-0.003801
2383.6325,-0.003729
2385.4962,-0.003785
2387.3599,-0.003971
2389.2236,-0.004139
2391.0872,-0.004140
2392.9509,-0.003822
2394.8146,-0.003707
2396.6782,-0.003793
2398.5419,-0.003720
2400.4056,-0.003682
2402.2692,-0.003445
2404.1329,-0.003189
2405.9966,-0.003166
2407.8602,-0.003153
2409.7239,-0.003294
2411.5876,-0.003225
2413.4512,-0.003158
2415.3149,-0.003085
2417.1786,-0.003231
2419.0423,-0.003387
2420.9059,-0.002956
2422.7696,-0.002633
2424.6333,-0.002418
2426.4969,-0.002391
2428.3606,-0.002872
2430.2243,-0.003188
2432.0879,-0.002995
2433.9516,-0.002652
2435.8153,-0.002379
2437.6789,-0.002282
2439.5426,-0.002326
2441.4063,-0.002600
2443.2700,-0.002671
2445.1336,-0.002407
2446.9973,-0.002464
2448.8610,-0.002648
2450.7246,-0.002233
2452.5883,-0.001891
2454.4520,-0.002046
2456.3156,-0.002222
2458.1793,-0.002290
2460.0430,-0.002160
2461.9066,-0.002032
2463.7703,-0.002068
2465.6340,-0.002348
2467.4976,-0.002482
2469.3613,-0.002204
2471.2250,-0.001983
2473.0887,-0.002001
2474.9523,-0.002071
2476.8160,-0.001778
2478.6797,-0.001651
2480.5433,-0.001757
2482.4070,-0.001724
2484.2707,-0.001801
2486.1343,-0.001973
2487.9980,-0.001866
2489.8617,-0.001582
2491.7253,-0.001475
2493.5890,-0.001717
2495.4527,-0.001984
2497.3164,-0.002031
2499.1800,-0.001819
2501.0437,-0.001519
2502.9074,-0.001364
2504.7710,-0.001531
2506.6347,-0.001557
2508.4984,-0.001453
2510.3620,-0.001203
2512.2257,-0.001161
2514.0894,-0.001233
2515.9530,-0.001210
2517.8167,-0.001277
2519.6804,-0.001211
2521.5440,-0.001223
2523.4077,-0.001286
2525.2714,-0.001403
2527.1351,-0.001386
2528.9987,-0.000910
2530.8624,-0.000625
2532.7261,-0.000952
2534.5897,-0.001266
2536.4534,-0.001199
2538.3171,-0.000911
2540.1807,-0.000699
2542.0444,-0.000705
2543.9081,-0.000776
2545.7717,-0.000871
2547.6354,-0.000932
2549.4991,-0.000699
2551.3627,-0.000794
2553.2264,-0.000961
2555.0901,-0.000948
2556.9538,-0.001151
2558.8174,-0.000944
2560.6811,-0.000364
2562.5448,-0.000133
2564.4084,-0.000389
2566.2721,-0.000711
2568.1358,-0.000383
2569.9994,-0.000148
2571.8631,-0.000258
2573.7268,-0.000328
2575.5904,-0.000456
2577.4541,-0.000509
2579.3178,-0.000491
