Wavenumber,Intensity
650.4205,0.118220
652.2841,0.120044
654.1478,0.120591
656.0115,0.116883
657.8751,0.114786
659.7388,0.116072
661.6025,0.117180
663.4661,0.115610
665.3298,0.111137
667.1935,0.109028
669.0571,0.113637
670.9208,0.112386
672.7845,0.110552
674.6481,0.110734
676.5118,0.110554
678.3755,0.107971
680.2392,0.105163
682.1028,0.104450
683.9665,0.104503
685.8302,0.103530
687.6938,0.103242
689.5575,0.103882
691.4212,0.103587
693.2848,0.102205
695.1485,0.101055
697.0122,0.100472
698.8758,0.099502
700.7395,0.098409
702.6032,0.097886
704.4669,0.097440
706.3305,0.096976
708.1942,0.095220
710.0579,0.093258
711.9215,0.092572
713.7852,0.090957
715.6489,0.088001
717.5125,0.086421
719.3762,0.086331
721.2399,0.085496
723.1035,0.084482
724.9672,0.084012
726.8309,0.082803
728.6945,0.081877
730.5582,0.081648
732.4219,0.080638
734.2856,0.079723
736.1492,0.079549
738.0129,0.079387
739.8766,0.079029
741.7402,0.078902
743.6039,0.078550
745.4676,0.077172
747.3312,0.076192
749.1949,0.075783
751.0586,0.074831
752.9222,0.073973
754.7859,0.073329
756.6496,0.073100
758.5132,0.072884
760.3769,0.072291
762.2406,0.071650
764.1043,0.071118
765.9679,0.070646
767.8316,0.070149
769.6953,0.069630
771.5589,0.068815
773.4226,0.068136
775.2863,0.068091
777.1499,0.067620
779.0136,0.066455
780.8773,0.065546
782.7409,0.064872
784.6046,0.064153
786.4683,0.063503
788.3320,0.063098
790.1956,0.062766
792.0593,0.062061
793.9230,0.061270
795.7866,0.061057
797.6503,0.060936
799.5140,0.060260
801.3776,0.059925
803.2413,0.060015
805.1050,0.060088
806.9686,0.059749
808.8323,0.059260
810.6960,0.059097
812.5596,0.058925
814.4233,0.058668
816.2870,0.058164
818.1507,0.057300
820.0143,0.056756
821.8780,0.056204
823.7417,0.055485
825.6053,0.054852
827.4690,0.054085
829.3327,0.053390
831.1963,0.052941
833.0600,0.052202
834.9237,0.051368
836.7873,0.050852
838.6510,0.050239
840.5147,0.049563
842.3784,0.048855
844.2420,0.048163
846.1057,0.048097
847.9694,0.048148
849.8330,0.047961
851.6967,0.048024
853.5604,0.048086
855.4240,0.047866
857.2877,0.047732
859.1514,0.047806
861.0150,0.047970
862.8787,0.048203
864.7424,0.048563
866.6060,0.048984
868.4697,0.049226
870.3334,0.049499
872.1971,0.049863
874.0607,0.049971
875.9244,0.049928
877.7881,0.049776
879.6517,0.049656
881.5154,0.049429
883.3791,0.049156
885.2427,0.049038
887.1064,0.048977
888.9701,0.049033
890.8337,0.049152
892.6974,0.049084
894.5611,0.049083
896.4247,0.049110
898.2884,0.048996
900.1521,0.048764
902.0158,0.048586
903.8794,0.048437
905.7431,0.048318
907.6068,0.048314
909.4704,0.048537
911.3341,0.048930
913.1978,0.049305
915.0614,0.049658
916.9251,0.050101
918.7888,0.050580
920.6524,0.050926
922.5161,0.051099
924.3798,0.051422
926.2435,0.051681
928.1071,0.051806
929.9708,0.051994
931.8345,0.052205
933.6981,0.052398
935.5618,0.052826
937.4255,0.053523
939.2891,0.054243
941.1528,0.054970
943.0165,0.055798
944.8801,0.056627
946.7438,0.057437
948.6075,0.057999
950.4711,0.058336
952.3348,0.058694
954.1985,0.059221
956.0622,0.059994
957.9258,0.061195
959.7895,0.062853
961.6532,0.064983
963.5168,0.067173
965.3805,0.069061
967.2442,0.070634
969.1078,0.071732
970.9715,0.072202
972.8352,0.072427
974.6988,0.072976
976.5625,0.073845
978.4262,0.075059
980.2899,0.076563
982.1535,0.078112
984.0172,0.079694
985.8809,0.081294
987.7445,0.082883
989.6082,0.084390
991.4719,0.085988
993.3355,0.087657
995.1992,0.089291
997.0629,0.090921
998.9265,0.092481
1000.7902,0.093833
1002.6539,0.095235
1004.5175,0.096934
1006.3812,0.098897
1008.2449,0.101314
1010.1086,0.104186
1011.9722,0.107206
1013.8359,0.110409
1015.6996,0.113589
1017.5632,0.116509
1019.4269,0.119041
1021.2906,0.121184
1023.1542,0.122960
1025.0179,0.124442
1026.8816,0.125778
1028.7452,0.127081
1030.6089,0.128293
1032.4726,0.129082
1034.3362,0.129436
1036.1999,0.129714
1038.0636,0.129760
1039.9273,0.129427
1041.7909,0.128912
1043.6546,0.128346
1045.5183,0.127856
1047.3819,0.127624
1049.2456,0.127707
1051.1093,0.128020
1052.9729,0.128339
1054.8366,0.128699
1056.7003,0.129008
1058.5639,0.129249
1060.4276,0.129378
1062.2913,0.129420
1064.1550,0.129664
1066.0186,0.130121
1067.8823,0.130342
1069.7460,0.130269
1071.6096,0.130176
1073.4733,0.129698
1075.3370,0.128439
1077.2006,0.126503
1079.0643,0.124002
1080.9280,0.121100
1082.7916,0.117844
1084.6553,0.114337
1086.5190,0.110924
1088.3826,0.107797
1090.2463,0.104981
1092.1100,0.102548
1093.9737,0.100508
1095.8373,0.098720
1097.7010,0.097081
1099.5647,0.095553
1101.4283,0.094169
1103.2920,0.093052
1105.1557,0.092252
1107.0193,0.091633
1108.8830,0.091102
1110.7467,0.090658
1112.6103,0.090210
1114.4740,0.089564
1116.3377,0.088724
1118.2014,0.087781
1120.0650,0.086675
1121.9287,0.085590
1123.7924,0.084513
1125.6560,0.083367
1127.5197,0.082129
1129.3834,0.080807
1131.2470,0.079357
1133.1107,0.077828
1134.9744,0.076362
1136.8380,0.075007
1138.7017,0.073677
1140.5654,0.072543
1142.4290,0.071807
1144.2927,0.071455
1146.1564,0.071314
1148.0201,0.071369
1149.8837,0.071541
1151.7474,0.071671
1153.6111,0.071813
1155.4747,0.071836
1157.3384,0.071542
1159.2021,0.071076
1161.0657,0.070635
1162.9294,0.070069
1164.7931,0.069296
1166.6567,0.068297
1168.5204,0.066999
1170.3841,0.065353
1172.2477,0.063428
1174.1114,0.061415
1175.9751,0.059378
1177.8388,0.057641
1179.7024,0.056484
1181.5661,0.055832
1183.4298,0.055639
1185.2934,0.055828
1187.1571,0.056290
1189.0208,0.056982
1190.8844,0.057878
1192.7481,0.058846
1194.6118,0.059870
1196.4754,0.061127
1198.3391,0.062604
1200.2028,0.064155
1202.0665,0.065660
1203.9301,0.067058
1205.7938,0.068261
1207.6575,0.069308
1209.5211,0.070281
1211.3848,0.071172
1213.2485,0.072002
1215.1121,0.072991
1216.9758,0.074181
1218.8395,0.075390
1220.7031,0.076518
1222.5668,0.077678
1224.4305,0.078849
1226.2941,0.079918
1228.1578,0.080709
1230.0215,0.081332
1231.8852,0.081928
1233.7488,0.082359
1235.6125,0.082659
1237.4762,0.082745
1239.3398,0.082545
1241.2035,0.082203
1243.0672,0.081663
1244.9308,0.081007
1246.7945,0.080221
1248.6582,0.079324
1250.5218,0.078371
1252.3855,0.077418
1254.2492,0.076485
1256.1129,0.075658
1257.9765,0.074917
1259.8402,0.074199
1261.7039,0.073607
1263.5675,0.073011
1265.4312,0.072374
1267.2949,0.071861
1269.1585,0.071507
1271.0222,0.071131
1272.8859,0.070725
1274.7495,0.070437
1276.6132,0.070233
1278.4769,0.070114
1280.3405,0.070021
1282.2042,0.069855
1284.0679,0.069685
1285.9316,0.069748
1287.7952,0.069989
1289.6589,0.070057
1291.5226,0.070063
1293.3862,0.070202
1295.2499,0.070489
1297.1136,0.070907
1298.9772,0.071363
1300.8409,0.071730
1302.7046,0.072038
1304.5682,0.072394
1306.4319,0.072701
1308.2956,0.072973
1310.1592,0.073176
1312.0229,0.073362
1313.8866,0.073377
1315.7503,0.073113
1317.6139,0.072906
1319.4776,0.072601
1321.3413,0.071942
1323.2049,0.071213
1325.0686,0.070555
1326.9323,0.069948
1328.7959,0.069634
1330.6596,0.069473
1332.5233,0.069167
1334.3869,0.068806
1336.2506,0.068840
1338.1143,0.069514
1339.9780,0.070385
1341.8416,0.070149
1343.7053,0.069493
1345.5690,0.069321
1347.4326,0.069290
1349.2963,0.069269
1351.1600,0.069145
1353.0236,0.069277
1354.8873,0.069714
1356.7510,0.069982
1358.6146,0.070228
1360.4783,0.071527
1362.3420,0.074107
1364.2056,0.075730
1366.0693,0.076394
1367.9330,0.077685
1369.7967,0.078742
1371.6603,0.079705
1373.5240,0.082171
1375.3877,0.084260
1377.2513,0.084684
1379.1150,0.085401
1380.9787,0.085929
1382.8423,0.086010
1384.7060,0.086217
1386.5697,0.087830
1388.4333,0.088675
1390.2970,0.087195
1392.1607,0.086375
1394.0244,0.087542
1395.8880,0.088478
1397.7517,0.088291
1399.6154,0.088241
1401.4790,0.086509
1403.3427,0.085416
1405.2064,0.085287
1407.0700,0.084122
1408.9337,0.082522
1410.7974,0.081507
1412.6610,0.080252
1414.5247,0.078494
1416.3884,0.077696
1418.2520,0.079413
1420.1157,0.079980
1421.9794,0.077925
1423.8431,0.077580
1425.7067,0.077341
1427.5704,0.077179
1429.4341,0.078682
1431.2977,0.079456
1433.1614,0.079163
1435.0251,0.081410
1436.8887,0.086216
1438.7524,0.086156
1440.6161,0.085006
1442.4797,0.085046
1444.3434,0.084905
1446.2071,0.085416
1448.0707,0.086312
1449.9344,0.085218
1451.7981,0.082855
1453.6618,0.080821
1455.5254,0.081593
1457.3891,0.085395
1459.2528,0.082146
1461.1164,0.077509
1462.9801,0.075772
1464.8438,0.076521
1466.7074,0.074653
1468.5711,0.071286
1470.4348,0.069830
1472.2984,0.071633
1474.1621,0.071566
1476.0258,0.069967
1477.8895,0.068696
1479.7531,0.068253
1481.6168,0.069049
1483.4805,0.069401
1485.3441,0.070303
1487.2078,0.073819
1489.0715,0.079946
1490.9351,0.084267
1492.7988,0.083847
1494.6625,0.085917
1496.5261,0.093223
1498.3898,0.098501
1500.2535,0.099720
1502.1171,0.098805
1503.9808,0.099667
1505.8445,0.110537
1507.7082,0.123307
1509.5718,0.121492
1511.4355,0.120815
1513.2992,0.121568
1515.1628,0.122729
1517.0265,0.124646
1518.8902,0.124719
1520.7538,0.127508
1522.6175,0.130148
1524.4812,0.129263
1526.3448,0.130648
1528.2085,0.130419
1530.0722,0.128967
1531.9359,0.129371
1533.7995,0.131330
1535.6632,0.128152
1537.5269,0.125711
1539.3905,0.129349
1541.2542,0.132048
1543.1179,0.128752
1544.9815,0.125296
1546.8452,0.120854
1548.7089,0.117416
1550.5725,0.114373
1552.4362,0.110440
1554.2999,0.106354
1556.1635,0.102668
1558.0272,0.104005
1559.8909,0.104613
1561.7546,0.097666
1563.6182,0.093249
1565.4819,0.090360
1567.3456,0.088104
1569.2092,0.087091
1571.0729,0.084595
1572.9366,0.081325
1574.8002,0.080615
1576.6639,0.081501
1578.5276,0.079209
1580.3912,0.076946
1582.2549,0.076255
1584.1186,0.075911
1585.9822,0.075723
1587.8459,0.076173
1589.7096,0.077113
1591.5733,0.078233
1593.4369,0.079990
1595.3006,0.082074
1597.1643,0.084084
1599.0279,0.086239
1600.8916,0.089152
1602.7553,0.092490
1604.6189,0.095752
1606.4826,0.099359
1608.3463,0.103588
1610.2099,0.107114
1612.0736,0.109569
1613.9373,0.112138
1615.8010,0.118086
1617.6646,0.123877
1619.5283,0.123948
1621.3920,0.124893
1623.2556,0.128903
1625.1193,0.131072
1626.9830,0.132103
1628.8466,0.132744
1630.7103,0.131187
1632.5740,0.129388
1634.4376,0.130532
1636.3013,0.132590
1638.1650,0.129146
1640.0286,0.125141
1641.8923,0.121847
1643.7560,0.118735
1645.6197,0.117308
1647.4833,0.115234
1649.3470,0.110560
1651.2107,0.107610
1653.0743,0.107889
1654.9380,0.103237
1656.8017,0.097601
1658.6653,0.093063
1660.5290,0.089480
1662.3927,0.086202
1664.2563,0.082050
1666.1200,0.077831
1667.9837,0.074827
1669.8474,0.072211
1671.7110,0.068869
1673.5747,0.065572
1675.4384,0.062676
1677.3020,0.058700
1679.1657,0.054842
1681.0294,0.051501
1682.8930,0.049267
1684.7567,0.046601
1686.6204,0.042545
1688.4840,0.038871
1690.3477,0.035234
1692.2114,0.031622
1694.0750,0.028388
1695.9387,0.024677
1697.8024,0.021299
1699.6661,0.018495
1701.5297,0.015556
1703.3934,0.013311
1705.2571,0.011490
1707.1207,0.009712
1708.9844,0.008369
1710.8481,0.007346
1712.7117,0.006467
1714.5754,0.005551
1716.4391,0.005219
1718.3027,0.005010
1720.1664,0.004530
1722.0301,0.003819
1723.8937,0.003381
1725.7574,0.003103
1727.6211,0.002765
1729.4848,0.002485
1731.3484,0.002549
1733.2121,0.002437
1735.0758,0.002693
1736.9394,0.002497
1738.8031,0.002205
1740.6668,0.002211
1742.5304,0.002155
1744.3941,0.001892
1746.2578,0.001639
1748.1214,0.001533
1749.9851,0.001388
1751.8488,0.000820
1753.7125,0.000402
1755.5761,0.000127
1757.4398,0.000095
1759.3035,-0.000051
1761.1671,-0.000208
1763.0308,-0.000111
1764.8945,-0.000226
1766.7581,-0.000581
1768.6218,-0.000525
1770.4855,-0.000392
1772.3491,-0.000276
1774.2128,-0.000235
1776.0765,-0.000605
1777.9401,-0.000896
1779.8038,-0.000549
1781.6675,-0.000243
1783.5312,-0.000410
1785.3948,-0.000658
1787.2585,-0.000551
1789.1222,-0.000376
1790.9858,-0.000303
1792.8495,-0.000338
1794.7132,-0.000558
1796.5768,-0.000654
1798.4405,-0.000539
1800.3042,-0.000269
1802.1678,-0.000128
1804.0315,-0.000326
1805.8952,-0.000404
1807.7589,-0.000451
1809.6225,-0.000483
1811.4862,-0.000381
1813.3499,-0.000173
1815.2135,-0.000351
1817.0772,-0.000401
1818.9409,-0.000003
1820.8045,-0.000027
1822.6682,-0.000396
1824.5319,-0.000381
1826.3955,-0.000272
1828.2592,-0.000373
1830.1229,-0.000280
1831.9865,0.000001
1833.8502,0.000092
1835.7139,0.000080
1837.5776,-0.000040
1839.4412,0.000113
1841.3049,0.000114
1843.1686,0.000100
1845.0322,0.000579
1846.8959,0.000832
1848.7596,0.000482
1850.6232,0.000264
1852.4869,0.000095
1854.3506,0.000122
1856.2142,0.000369
1858.0779,0.000436
1859.9416,0.000309
1861.8052,0.000070
1863.6689,-0.000025
1865.5326,0.000443
1867.3963,0.000824
1869.2599,0.000711
1871.1236,0.000527
1872.9873,0.000604
1874.8509,0.000527
1876.7146,0.000220
1878.5783,0.000021
1880.4419,0.000397
1882.3056,0.000653
1884.1693,0.000459
1886.0329,0.000365
1887.8966,0.000420
1889.7603,0.000361
1891.6240,0.000667
1893.4876,0.001060
1895.3513,0.001038
1897.2150,0.000607
1899.0786,0.000798
1900.9423,0.001061
1902.8060,0.000784
1904.6696,0.000555
1906.5333,0.000533
1908.3970,0.000775
1910.2606,0.001184
1912.1243,0.001398
1913.9880,0.001538
1915.8516,0.001256
1917.7153,0.001079
1919.5790,0.001189
1921.4427,0.000798
1923.3063,0.000527
1925.1700,0.000489
1927.0337,0.000571
1928.8973,0.000935
1930.7610,0.000952
1932.6247,0.000935
1934.4883,0.001126
1936.3520,0.001314
1938.2157,0.001682
1940.0793,0.001326
1941.9430,0.000911
1943.8067,0.001405
1945.6704,0.001601
1947.5340,0.001265
1949.3977,0.002098
1951.2614,0.002739
1953.1250,0.001689
1954.9887,0.001006
1956.8524,0.001919
1958.7160,0.002373
1960.5797,0.001975
1962.4434,0.002090
1964.3070,0.002026
1966.1707,0.001912
1968.0344,0.001861
1969.8980,0.002547
1971.7617,0.003169
1973.6254,0.003518
1975.4891,0.003403
1977.3527,0.004892
1979.2164,0.006215
1981.0801,0.005326
1982.9437,0.004325
1984.8074,0.003831
1986.6711,0.003501
1988.5347,0.003217
1990.3984,0.003355
1992.2621,0.003598
1994.1257,0.003848
1995.9894,0.003911
1997.8531,0.003217
1999.7167,0.002790
2001.5804,0.002760
2003.4441,0.002827
2005.3078,0.003872
2007.1714,0.004685
2009.0351,0.003798
2010.8988,0.002714
2012.7624,0.003740
2014.6261,0.005420
2016.4898,0.005758
2018.3534,0.005295
2020.2171,0.006141
2022.0808,0.007716
2023.9444,0.007038
2025.8081,0.005534
2027.6718,0.005627
2029.5355,0.006445
2031.3991,0.006810
2033.2628,0.007437
2035.1265,0.007229
2036.9901,0.007441
2038.8538,0.008777
2040.7175,0.008728
2042.5811,0.008211
2044.4448,0.009661
2046.3085,0.010905
2048.1721,0.010586
2050.0358,0.010604
2051.8995,0.010528
2053.7631,0.009884
2055.6268,0.009741
2057.4905,0.009612
2059.3542,0.009756
2061.2178,0.009929
2063.0815,0.010080
2064.9452,0.010436
2066.8088,0.010146
2068.6725,0.009336
2070.5362,0.008360
2072.3998,0.007854
2074.2635,0.007880
2076.1272,0.007569
2077.9908,0.007206
2079.8545,0.007093
2081.7182,0.006700
2083.5819,0.005987
2085.4455,0.005985
2087.3092,0.006097
2089.1729,0.005451
2091.0365,0.004705
2092.9002,0.004431
2094.7639,0.004577
2096.6275,0.004585
2098.4912,0.004416
2100.3549,0.004559
2102.2185,0.004478
2104.0822,0.004272
2105.9459,0.004691
2107.8095,0.005214
2109.6732,0.005277
2111.5369,0.004969
2113.4006,0.004575
2115.2642,0.004257
2117.1279,0.003957
2118.9916,0.004182
2120.8552,0.003918
2122.7189,0.003393
2124.5826,0.003541
2126.4462,0.003290
2128.3099,0.002951
2130.1736,0.002686
2132.0372,0.002139
2133.9009,0.002326
2135.7646,0.003055
2137.6282,0.003441
2139.4919,0.004044
2141.3556,0.004602
2143.2193,0.004584
2145.0829,0.004803
2146.9466,0.005145
2148.8103,0.004991
2150.6739,0.004516
2152.5376,0.005113
2154.4013,0.006436
2156.2649,0.006721
2158.1286,0.006375
2159.9923,0.007344
2161.8559,0.008375
2163.7196,0.008015
2165.5833,0.008034
2167.4470,0.008255
2169.3106,0.007650
2171.1743,0.006871
2173.0380,0.007107
2174.9016,0.007566
2176.7653,0.007502
2178.6290,0.007252
2180.4926,0.007025
2182.3563,0.007243
2184.2200,0.007220
2186.0836,0.006599
2187.9473,0.006954
2189.8110,0.007249
2191.6746,0.006109
2193.5383,0.006063
2195.4020,0.006961
2197.2657,0.007334
2199.1293,0.007280
2200.9930,0.006730
2202.8567,0.005746
2204.7203,0.004948
2206.5840,0.005447
2208.4477,0.006222
2210.3113,0.006351
2212.1750,0.006237
2214.0387,0.006244
2215.9023,0.006455
2217.7660,0.006401
2219.6297,0.006482
2221.4934,0.006482
2223.3570,0.006213
2225.2207,0.006364
2227.0844,0.006456
2228.9480,0.006048
2230.8117,0.006242
2232.6754,0.006974
2234.5390,0.007001
2236.4027,0.006620
2238.2664,0.005936
2240.1300,0.005771
2241.9937,0.006259
2243.8574,0.006084
2245.7210,0.005668
2247.5847,0.005686
2249.4484,0.005924
2251.3121,0.006416
2253.1757,0.006265
2255.0394,0.005817
2256.9031,0.006400
2258.7667,0.006575
2260.6304,0.006374
2262.4941,0.006577
2264.3577,0.006251
2266.2214,0.006320
2268.0851,0.006775
2269.9487,0.006639
2271.8124,0.006560
2273.6761,0.006657
2275.5397,0.006982
2277.4034,0.007262
2279.2671,0.007412
2281.1308,0.007127
2282.9944,0.006770
2284.8581,0.006936
2286.7218,0.007195
2288.5854,0.006918
2290.4491,0.006578
2292.3128,0.006319
2294.1764,0.005946
2296.0401,0.006048
2297.9038,0.006216
2299.7674,0.006106
2301.6311,0.006120
2303.4948,0.006014
2305.3585,0.005588
2307.2221,0.005560
2309.0858,0.005932
2310.9495,0.006048
2312.8131,0.006064
2314.6768,0.006074
2316.5405,0.006145
2318.4041,0.006458
2320.2678,0.006802
2322.1315,0.006768
2323.9951,0.006712
2325.8588,0.006501
2327.7225,0.006000
2329.5861,0.005921
2331.4498,0.006111
2333.3135,0.005908
2335.1772,0.005393
2337.0408,0.005731
2338.9045,0.006903
2340.7682,0.007380
2342.6318,0.006935
2344.4955,0.006672
2346.3592,0.006372
2348.2228,0.005279
2350.0865,0.004386
2351.9502,0.004501
2353.8138,0.005437
2355.6775,0.006359
2357.5412,0.006832
2359.4049,0.007365
2361.2685,0.007593
2363.1322,0.007476
2364.9959,0.007517
2366.8595,0.007481
2368.7232,0.007664
2370.5869,0.007927
2372.4505,0.007574
2374.3142,0.007326
2376.1779,0.007179
2378.0415,0.006610
2379.9052,0.006012
2381.7689,0.005799
2383.6325,0.005734
2385.4962,0.005523
2387.3599,0.005538
2389.2236,0.005751
2391.0872,0.005904
2392.9509,0.005955
2394.8146,0.005794
2396.6782,0.005919
2398.5419,0.006178
2400.4056,0.005993
2402.2692,0.005581
2404.1329,0.005791
2405.9966,0.006408
2407.8602,0.006432
2409.7239,0.006311
2411.5876,0.006391
2413.4512,0.006342
2415.3149,0.006500
2417.1786,0.006543
2419.0423,0.006398
2420.9059,0.006506
2422.7696,0.006815
2424.6333,0.007014
2426.4969,0.007207
2428.3606,0.007335
2430.2243,0.007383
2432.0879,0.007205
2433.9516,0.007055
2435.8153,0.007278
2437.6789,0.007391
2439.5426,0.007503
2441.4063,0.007559
2443.2700,0.007763
2445.1336,0.007806
2446.9973,0.007486
2448.8610,0.007860
2450.7246,0.008412
2452.5883,0.008524
2454.4520,0.008435
2456.3156,0.008024
2458.1793,0.007561
2460.0430,0.007572
2461.9066,0.008040
2463.7703,0.008163
2465.6340,0.008049
2467.4976,0.007989
2469.3613,0.008051
2471.2250,0.008164
2473.0887,0.008205
2474.9523,0.008377
2476.8160,0.008337
2478.6797,0.008229
2480.5433,0.008450
2482.4070,0.008520
2484.2707,0.008445
2486.1343,0.008756
2487.9980,0.008824
2489.8617,0.008750
2491.7253,0.008678
2493.5890,0.008430
2495.4527,0.008336
2497.3164,0.008628
2499.1800,0.008894
2501.0437,0.008820
2502.9074,0.008912
2504.7710,0.009077
2506.6347,0.009102
2508.4984,0.009098
2510.3620,0.009290
2512.2257,0.009203
2514.0894,0.009019
2515.9530,0.009330
2517.8167,0.009896
2519.6804,0.009750
2521.5440,0.009104
2523.4077,0.009163
2525.2714,0.009453
2527.1351,0.009329
2528.9987,0.009466
2530.8624,0.009530
2532.7261,0.009497
2534.5897,0.009681
2536.4534,0.009795
2538.3171,0.009818
2540.1807,0.010022
2542.0444,0.009818
2543.9081,0.009659
2545.7717,0.009801
2547.6354,0.009826
2549.4991,0.009900
2551.3627,0.010014
2553.2264,0.010212
2555.0901,0.010463
2556.9538,0.010717
2558.8174,0.010757
2560.6811,0.010469
2562.5448,0.010372
2564.4084,0.010518
2566.2721,0.010699
2568.1358,0.010783
2569.9994,0.010895
2571.8631,0.011095
2573.7268,0.011279
2575.5904,0.011115
2577.4541,0.010874
2579.3178,0.011102
2581.1815,0.011310
2583.0451,0.011287
2584.9088,0.011087
2586.7725,0.010827
2588.6361,0.011074
2590.4998,0.011582
2592.3635,0.011854
2594.2271,0.011809
2596.0908,0.011962
2597.9545,0.012281
2599.8181,0.012586
2601.6818,0.012749
2603.5455,0.012546
2605.4091,0.012559
2607.2728,0.012759
2609.1365,0.012704
2611.0002,0.012501
2612.8638,0.012672
2614.7275,0.012784
2616.5912,0.012716
2618.4548,0.013052
2620.3185,0.013275
2622.1822,0.013277
