Wavenumber,Intensity
650.4205,0.069532
652.2841,0.070705
654.1478,0.074613
656.0115,0.074418
657.8751,0.071660
659.7388,0.070898
661.6025,0.070890
663.4661,0.070783
665.3298,0.070261
667.1935,0.070244
669.0571,0.071169
670.9208,0.068937
672.7845,0.067948
674.6481,0.068230
676.5118,0.067300
678.3755,0.065849
680.2392,0.066148
682.1028,0.066153
683.9665,0.064951
685.8302,0.064793
687.6938,0.064846
689.5575,0.064887
691.4212,0.064912
693.2848,0.064081
695.1485,0.063374
697.0122,0.063080
698.8758,0.062833
700.7395,0.062220
702.6032,0.061626
704.4669,0.061889
706.3305,0.061602
708.1942,0.060091
710.0579,0.058523
711.9215,0.057797
713.7852,0.057857
715.6489,0.057119
717.5125,0.056391
719.3762,0.056628
721.2399,0.056132
723.1035,0.055566
724.9672,0.054961
726.8309,0.053739
728.6945,0.053225
730.5582,0.052557
732.4219,0.052038
734.2856,0.052196
736.1492,0.052447
738.0129,0.052642
739.8766,0.051922
741.7402,0.051102
743.6039,0.051117
745.4676,0.050913
747.3312,0.050536
749.1949,0.050073
751.0586,0.049596
752.9222,0.049616
754.7859,0.049006
756.6496,0.047930
758.5132,0.047907
760.3769,0.047977
762.2406,0.047466
764.1043,0.047539
765.9679,0.047947
767.8316,0.047572
769.6953,0.046825
771.5589,0.046607
773.4226,0.046486
775.2863,0.046140
777.1499,0.045747
779.0136,0.045079
780.8773,0.044503
782.7409,0.044417
784.6046,0.044155
786.4683,0.043811
788.3320,0.043487
790.1956,0.042926
792.0593,0.042540
793.9230,0.042443
795.7866,0.042135
797.6503,0.041751
799.5140,0.041718
801.3776,0.041841
803.2413,0.041792
805.1050,0.041358
806.9686,0.040889
808.8323,0.040713
810.6960,0.040438
812.5596,0.040159
814.4233,0.040057
816.2870,0.039635
818.1507,0.038967
820.0143,0.038623
821.8780,0.038329
823.7417,0.037875
825.6053,0.037789
827.4690,0.037928
829.3327,0.037741
831.1963,0.037490
833.0600,0.037320
834.9237,0.037090
836.7873,0.036832
838.6510,0.036642
840.5147,0.036381
842.3784,0.035992
844.2420,0.035628
846.1057,0.035347
847.9694,0.035280
849.8330,0.035357
851.6967,0.035207
853.5604,0.034981
855.4240,0.035083
857.2877,0.035413
859.1514,0.035548
861.0150,0.035463
862.8787,0.035493
864.7424,0.035479
866.6060,0.035489
868.4697,0.035766
870.3334,0.035745
872.1971,0.035689
874.0607,0.035808
875.9244,0.035607
877.7881,0.035341
879.6517,0.035355
881.5154,0.035431
883.3791,0.035533
885.2427,0.035678
887.1064,0.035855
888.9701,0.035969
890.8337,0.036097
892.6974,0.036186
894.5611,0.036417
896.4247,0.036759
898.2884,0.036816
900.1521,0.036774
902.0158,0.036655
903.8794,0.036583
905.7431,0.036645
907.6068,0.036775
909.4704,0.036978
911.3341,0.037157
913.1978,0.037370
915.0614,0.037624
916.9251,0.037981
918.7888,0.038310
920.6524,0.038589
922.5161,0.038797
924.3798,0.038874
926.2435,0.039072
928.1071,0.039161
929.9708,0.039159
931.8345,0.039389
933.6981,0.039657
935.5618,0.039896
937.4255,0.040208
939.2891,0.040469
941.1528,0.040717
943.0165,0.040946
944.8801,0.041185
946.7438,0.041502
948.6075,0.041819
950.4711,0.042124
952.3348,0.042355
954.1985,0.042707
956.0622,0.043284
957.9258,0.044041
959.7895,0.044872
961.6532,0.045729
963.5168,0.046546
965.3805,0.047211
967.2442,0.047713
969.1078,0.048209
970.9715,0.048724
972.8352,0.049125
974.6988,0.049469
976.5625,0.049965
978.4262,0.050622
980.2899,0.051357
982.1535,0.052114
984.0172,0.052909
985.8809,0.053777
987.7445,0.054598
989.6082,0.055413
991.4719,0.056354
993.3355,0.057328
995.1992,0.058223
997.0629,0.058915
998.9265,0.059438
1000.7902,0.059945
1002.6539,0.060518
1004.5175,0.061124
1006.3812,0.061831
1008.2449,0.062538
1010.1086,0.063143
1011.9722,0.063781
1013.8359,0.064492
1015.6996,0.065159
1017.5632,0.065772
1019.4269,0.066340
1021.2906,0.066868
1023.1542,0.067208
1025.0179,0.067410
1026.8816,0.067590
1028.7452,0.067886
1030.6089,0.068174
1032.4726,0.068205
1034.3362,0.068078
1036.1999,0.067979
1038.0636,0.067977
1039.9273,0.067890
1041.7909,0.067631
1043.6546,0.067275
1045.5183,0.066958
1047.3819,0.066656
1049.2456,0.066297
1051.1093,0.066012
1052.9729,0.065747
1054.8366,0.065437
1056.7003,0.065154
1058.5639,0.064807
1060.4276,0.064483
1062.2913,0.064349
1064.1550,0.064213
1066.0186,0.064115
1067.8823,0.064121
1069.7460,0.064011
1071.6096,0.063773
1073.4733,0.063384
1075.3370,0.062682
1077.2006,0.061800
1079.0643,0.060799
1080.9280,0.059596
1082.7916,0.058289
1084.6553,0.057006
1086.5190,0.055782
1088.3826,0.054661
1090.2463,0.053653
1092.1100,0.052808
1093.9737,0.052076
1095.8373,0.051432
1097.7010,0.050811
1099.5647,0.050238
1101.4283,0.049773
1103.2920,0.049347
1105.1557,0.048999
1107.0193,0.048764
1108.8830,0.048504
1110.7467,0.048254
1112.6103,0.048018
1114.4740,0.047750
1116.3377,0.047403
1118.2014,0.047081
1120.0650,0.046792
1121.9287,0.046430
1123.7924,0.046049
1125.6560,0.045647
1127.5197,0.045181
1129.3834,0.044721
1131.2470,0.044362
1133.1107,0.044052
1134.9744,0.043713
1136.8380,0.043476
1138.7017,0.043357
1140.5654,0.043289
1142.4290,0.043346
1144.2927,0.043483
1146.1564,0.043600
1148.0201,0.043788
1149.8837,0.043920
1151.7474,0.043866
1153.6111,0.043697
1155.4747,0.043507
1157.3384,0.043285
1159.2021,0.042985
1161.0657,0.042514
1162.9294,0.041969
1164.7931,0.041439
1166.6567,0.040799
1168.5204,0.040161
1170.3841,0.039511
1172.2477,0.038766
1174.1114,0.037960
1175.9751,0.037101
1177.8388,0.036307
1179.7024,0.035754
1181.5661,0.035470
1183.4298,0.035252
1185.2934,0.035225
1187.1571,0.035443
1189.0208,0.035820
1190.8844,0.036235
1192.7481,0.036714
1194.6118,0.037277
1196.4754,0.037860
1198.3391,0.038535
1200.2028,0.039252
1202.0665,0.039925
1203.9301,0.040496
1205.7938,0.040964
1207.6575,0.041423
1209.5211,0.041896
1211.3848,0.042374
1213.2485,0.042836
1215.1121,0.043206
1216.9758,0.043604
1218.8395,0.044098
1220.7031,0.044576
1222.5668,0.044964
1224.4305,0.045359
1226.2941,0.045738
1228.1578,0.045967
1230.0215,0.046077
1231.8852,0.046164
1233.7488,0.046193
1235.6125,0.046205
1237.4762,0.046080
1239.3398,0.045820
1241.2035,0.045509
1243.0672,0.045130
1244.9308,0.044713
1246.7945,0.044283
1248.6582,0.043888
1250.5218,0.043414
1252.3855,0.042931
1254.2492,0.042557
1256.1129,0.042140
1257.9765,0.041761
1259.8402,0.041486
1261.7039,0.041209
1263.5675,0.040920
1265.4312,0.040673
1267.2949,0.040478
1269.1585,0.040300
1271.0222,0.040140
1272.8859,0.039982
1274.7495,0.039897
1276.6132,0.039816
1278.4769,0.039718
1280.3405,0.039711
1282.2042,0.039713
1284.0679,0.039650
1285.9316,0.039638
1287.7952,0.039633
1289.6589,0.039630
1291.5226,0.039703
1293.3862,0.039831
1295.2499,0.039893
1297.1136,0.039986
1298.9772,0.040209
1300.8409,0.040414
1302.7046,0.040517
1304.5682,0.040634
1306.4319,0.040779
1308.2956,0.040890
1310.1592,0.040939
1312.0229,0.041038
1313.8866,0.041036
1315.7503,0.040788
1317.6139,0.040642
1319.4776,0.040657
1321.3413,0.040387
1323.2049,0.040081
1325.0686,0.039809
1326.9323,0.039640
1328.7959,0.039529
1330.6596,0.039457
1332.5233,0.039490
1334.3869,0.039453
1336.2506,0.039516
1338.1143,0.039963
1339.9780,0.040444
1341.8416,0.040240
1343.7053,0.039988
1345.5690,0.040055
1347.4326,0.040009
1349.2963,0.040013
1351.1600,0.040153
1353.0236,0.040285
1354.8873,0.040521
1356.7510,0.040649
1358.6146,0.040802
1360.4783,0.041420
1362.3420,0.042572
1364.2056,0.043322
1366.0693,0.043579
1367.9330,0.044191
1369.7967,0.044665
1371.6603,0.045009
1373.5240,0.045957
1375.3877,0.046652
1377.2513,0.046661
1379.1150,0.046807
1380.9787,0.046790
1382.8423,0.046573
1384.7060,0.046375
1386.5697,0.046828
1388.4333,0.047141
1390.2970,0.046493
1392.1607,0.046009
1394.0244,0.046278
1395.8880,0.046443
1397.7517,0.046113
1399.6154,0.046061
1401.4790,0.045330
1403.3427,0.044807
1405.2064,0.044822
1407.0700,0.044360
1408.9337,0.043818
1410.7974,0.043547
1412.6610,0.043171
1414.5247,0.042612
1416.3884,0.042445
1418.2520,0.043221
1420.1157,0.043748
1421.9794,0.042874
1423.8431,0.042825
1425.7067,0.042816
1427.5704,0.042681
1429.4341,0.043383
1431.2977,0.043683
1433.1614,0.043501
1435.0251,0.044279
1436.8887,0.046264
1438.7524,0.046199
1440.6161,0.045416
1442.4797,0.045444
1444.3434,0.045358
1446.2071,0.045509
1448.0707,0.045961
1449.9344,0.045393
1451.7981,0.044396
1453.6618,0.043756
1455.5254,0.044295
1457.3891,0.046143
1459.2528,0.044643
1461.1164,0.042558
1462.9801,0.041845
1464.8438,0.042346
1466.7074,0.041466
1468.5711,0.039735
1470.4348,0.038918
1472.2984,0.039724
1474.1621,0.039634
1476.0258,0.038849
1477.8895,0.038423
1479.7531,0.038531
1481.6168,0.039235
1483.4805,0.039511
1485.3441,0.040019
1487.2078,0.041718
1489.0715,0.044430
1490.9351,0.046237
1492.7988,0.046014
1494.6625,0.046948
1496.5261,0.049874
1498.3898,0.051822
1500.2535,0.052267
1502.1171,0.051936
1503.9808,0.052324
1505.8445,0.056327
1507.7082,0.060774
1509.5718,0.059845
1511.4355,0.059513
1513.2992,0.059786
1515.1628,0.060037
1517.0265,0.060659
1518.8902,0.060650
1520.7538,0.061420
1522.6175,0.062224
1524.4812,0.061477
1526.3448,0.061660
1528.2085,0.061341
1530.0722,0.060733
1531.9359,0.060782
1533.7995,0.061409
1535.6632,0.060158
1537.5269,0.059041
1539.3905,0.060493
1541.2542,0.061516
1543.1179,0.059811
1544.9815,0.058321
1546.8452,0.056897
1548.7089,0.055563
1550.5725,0.054124
1552.4362,0.052451
1554.2999,0.051061
1556.1635,0.049927
1558.0272,0.050567
1559.8909,0.050648
1561.7546,0.047443
1563.6182,0.045542
1565.4819,0.044592
1567.3456,0.043788
1569.2092,0.043546
1571.0729,0.042690
1572.9366,0.041411
1574.8002,0.041314
1576.6639,0.041757
1578.5276,0.040815
1580.3912,0.040187
1582.2549,0.040137
1584.1186,0.040065
1585.9822,0.040293
1587.8459,0.040573
1589.7096,0.041099
1591.5733,0.041764
1593.4369,0.042498
1595.3006,0.043357
1597.1643,0.044153
1599.0279,0.045160
1600.8916,0.046529
1602.7553,0.047776
1604.6189,0.049050
1606.4826,0.050656
1608.3463,0.052257
1610.2099,0.053591
1612.0736,0.054857
1613.9373,0.056168
1615.8010,0.058334
1617.6646,0.060684
1619.5283,0.061118
1621.3920,0.062023
1623.2556,0.064078
1625.1193,0.064955
1626.9830,0.065091
1628.8466,0.065846
1630.7103,0.065979
1632.5740,0.065659
1634.4376,0.066572
1636.3013,0.067410
1638.1650,0.065821
1640.0286,0.064408
1641.8923,0.063426
1643.7560,0.062464
1645.6197,0.061666
1647.4833,0.060717
1649.3470,0.059126
1651.2107,0.057961
1653.0743,0.058008
1654.9380,0.055712
1656.8017,0.053146
1658.6653,0.051267
1660.5290,0.049591
1662.3927,0.048007
1664.2563,0.046271
1666.1200,0.044282
1667.9837,0.042844
1669.8474,0.041596
1671.7110,0.039762
1673.5747,0.038058
1675.4384,0.036594
1677.3020,0.034788
1679.1657,0.033284
1681.0294,0.031932
1682.8930,0.030620
1684.7567,0.029053
1686.6204,0.026938
1688.4840,0.025244
1690.3477,0.023554
1692.2114,0.021791
1694.0750,0.020363
1695.9387,0.018906
1697.8024,0.017042
1699.6661,0.015668
1701.5297,0.014557
1703.3934,0.013158
1705.2571,0.012209
1707.1207,0.011148
1708.9844,0.010090
1710.8481,0.009384
1712.7117,0.008940
1714.5754,0.008470
1716.4391,0.008062
1718.3027,0.007814
1720.1664,0.007682
1722.0301,0.007651
1723.8937,0.007626
1725.7574,0.007403
1727.6211,0.007414
1729.4848,0.007664
1731.3484,0.007677
1733.2121,0.007974
1735.0758,0.008995
1736.9394,0.008909
1738.8031,0.008971
1740.6668,0.009626
1742.5304,0.009949
1744.3941,0.009789
1746.2578,0.009408
1748.1214,0.008692
1749.9851,0.007789
1751.8488,0.006929
1753.7125,0.005840
1755.5761,0.004695
1757.4398,0.003959
1759.3035,0.003154
1761.1671,0.002430
1763.0308,0.001935
1764.8945,0.001634
1766.7581,0.001366
1768.6218,0.001231
1770.4855,0.001063
1772.3491,0.000861
1774.2128,0.000753
1776.0765,0.000721
1777.9401,0.000771
1779.8038,0.000765
1781.6675,0.000758
1783.5312,0.000744
1785.3948,0.000702
1787.2585,0.000770
1789.1222,0.000702
1790.9858,0.000509
1792.8495,0.000610
1794.7132,0.000746
1796.5768,0.000596
1798.4405,0.000420
1800.3042,0.000471
1802.1678,0.000484
1804.0315,0.000380
1805.8952,0.000203
1807.7589,0.000139
1809.6225,0.000281
1811.4862,0.000305
1813.3499,0.000085
1815.2135,-0.000171
1817.0772,-0.000151
1818.9409,0.000154
1820.8045,0.000238
1822.6682,0.000261
1824.5319,0.000224
1826.3955,0.000210
1828.2592,0.000371
1830.1229,0.000381
1831.9865,0.000240
1833.8502,0.000281
1835.7139,0.000402
1837.5776,0.000095
1839.4412,-0.000017
1841.3049,0.000171
1843.1686,0.000141
1845.0322,0.000260
1846.8959,0.000400
1848.7596,0.000458
1850.6232,0.000408
1852.4869,0.000458
1854.3506,0.000687
1856.2142,0.000719
1858.0779,0.000503
1859.9416,0.000330
1861.8052,0.000889
1863.6689,0.000960
1865.5326,0.000428
1867.3963,0.000575
1869.2599,0.000618
1871.1236,0.000531
1872.9873,0.000516
1874.8509,0.000859
1876.7146,0.001251
1878.5783,0.000902
1880.4419,0.000654
1882.3056,0.000881
1884.1693,0.000843
1886.0329,0.000696
1887.8966,0.000885
1889.7603,0.000842
1891.6240,0.000929
1893.4876,0.001083
1895.3513,0.000833
1897.2150,0.000695
1899.0786,0.001106
1900.9423,0.001500
1902.8060,0.001744
1904.6696,0.001868
1906.5333,0.001792
1908.3970,0.001250
1910.2606,0.000974
1912.1243,0.001108
1913.9880,0.001576
1915.8516,0.001346
1917.7153,0.001357
1919.5790,0.001606
1921.4427,0.001228
1923.3063,0.000748
1925.1700,0.000959
1927.0337,0.001000
1928.8973,0.001085
1930.7610,0.001313
1932.6247,0.000728
1934.4883,0.000474
1936.3520,0.000880
1938.2157,0.001152
1940.0793,0.001717
1941.9430,0.001437
1943.8067,0.000856
1945.6704,0.001440
1947.5340,0.001891
1949.3977,0.001974
1951.2614,0.002051
1953.1250,0.001991
1954.9887,0.001584
1956.8524,0.000642
1958.7160,0.000771
1960.5797,0.002015
1962.4434,0.002822
1964.3070,0.002709
1966.1707,0.002326
1968.0344,0.002933
1969.8980,0.003234
1971.7617,0.001828
1973.6254,0.000826
1975.4891,0.001665
1977.3527,0.003240
1979.2164,0.004135
1981.0801,0.003857
1982.9437,0.003395
1984.8074,0.003656
1986.6711,0.004115
1988.5347,0.004591
1990.3984,0.003550
1992.2621,0.002021
1994.1257,0.002051
1995.9894,0.002252
1997.8531,0.001923
1999.7167,0.002287
2001.5804,0.002244
2003.4441,0.001314
2005.3078,0.002178
2007.1714,0.002962
2009.0351,0.002310
2010.8988,0.002613
2012.7624,0.003251
2014.6261,0.003084
2016.4898,0.002088
2018.3534,0.001710
2020.2171,0.002339
2022.0808,0.002133
2023.9444,0.001868
2025.8081,0.002873
2027.6718,0.003060
2029.5355,0.002496
2031.3991,0.003357
2033.2628,0.004584
2035.1265,0.004414
2036.9901,0.003910
2038.8538,0.003994
2040.7175,0.003912
2042.5811,0.004177
2044.4448,0.004014
2046.3085,0.003785
2048.1721,0.004320
2050.0358,0.004526
2051.8995,0.004426
2053.7631,0.004098
2055.6268,0.003408
2057.4905,0.002956
2059.3542,0.003097
2061.2178,0.003468
2063.0815,0.003854
2064.9452,0.003934
2066.8088,0.003939
2068.6725,0.003503
2070.5362,0.003035
2072.3998,0.003373
2074.2635,0.003982
2076.1272,0.003792
2077.9908,0.003521
2079.8545,0.003863
2081.7182,0.003913
2083.5819,0.003547
2085.4455,0.003595
2087.3092,0.003717
2089.1729,0.003229
2091.0365,0.002946
2092.9002,0.002751
2094.7639,0.002705
2096.6275,0.003609
2098.4912,0.004083
2100.3549,0.003339
2102.2185,0.002876
2104.0822,0.003669
2105.9459,0.004065
2107.8095,0.003272
2109.6732,0.002964
2111.5369,0.003637
2113.4006,0.004173
2115.2642,0.003674
2117.1279,0.002765
2118.9916,0.002563
2120.8552,0.002754
2122.7189,0.002739
2124.5826,0.002255
2126.4462,0.001853
2128.3099,0.002088
2130.1736,0.002252
2132.0372,0.001907
2133.9009,0.001861
2135.7646,0.002456
2137.6282,0.002869
2139.4919,0.002237
2141.3556,0.001325
2143.2193,0.001457
2145.0829,0.002783
2146.9466,0.003840
2148.8103,0.003365
2150.6739,0.002468
2152.5376,0.002430
2154.4013,0.002512
2156.2649,0.002106
2158.1286,0.002827
2159.9923,0.004797
2161.8559,0.005440
2163.7196,0.005331
2165.5833,0.006299
2167.4470,0.006601
2169.3106,0.005080
2171.1743,0.003768
2173.0380,0.004090
2174.9016,0.005225
2176.7653,0.005506
2178.6290,0.004276
2180.4926,0.003679
2182.3563,0.005442
2184.2200,0.006346
2186.0836,0.005481
2187.9473,0.004874
2189.8110,0.005022
2191.6746,0.004970
2193.5383,0.004416
2195.4020,0.004657
2197.2657,0.005014
2199.1293,0.005138
2200.9930,0.005485
2202.8567,0.004994
2204.7203,0.004517
2206.5840,0.004454
2208.4477,0.004240
2210.3113,0.004483
2212.1750,0.004655
2214.0387,0.004072
2215.9023,0.004271
2217.7660,0.005208
2219.6297,0.005244
2221.4934,0.004999
2223.3570,0.005093
2225.2207,0.005049
2227.0844,0.004734
2228.9480,0.004516
2230.8117,0.004448
2232.6754,0.004119
2234.5390,0.003892
2236.4027,0.004122
2238.2664,0.004481
2240.1300,0.004830
2241.9937,0.005107
2243.8574,0.004861
2245.7210,0.004486
2247.5847,0.004538
2249.4484,0.004238
2251.3121,0.004111
2253.1757,0.004667
2255.0394,0.004522
2256.9031,0.004304
2258.7667,0.004702
2260.6304,0.004658
2262.4941,0.004380
2264.3577,0.004561
2266.2214,0.004762
2268.0851,0.004512
2269.9487,0.004194
2271.8124,0.004078
2273.6761,0.004440
2275.5397,0.005320
2277.4034,0.005491
2279.2671,0.004988
2281.1308,0.004980
2282.9944,0.004989
2284.8581,0.005115
2286.7218,0.005444
2288.5854,0.005470
2290.4491,0.005181
2292.3128,0.004761
2294.1764,0.004591
2296.0401,0.004604
2297.9038,0.004443
2299.7674,0.004267
2301.6311,0.004218
2303.4948,0.004219
2305.3585,0.004383
2307.2221,0.004395
2309.0858,0.004311
2310.9495,0.004321
2312.8131,0.004062
2314.6768,0.004507
2316.5405,0.005334
2318.4041,0.004912
2320.2678,0.004645
2322.1315,0.005505
2323.9951,0.005660
2325.8588,0.004510
2327.7225,0.003689
2329.5861,0.003571
2331.4498,0.003596
2333.3135,0.003981
2335.1772,0.004417
2337.0408,0.004563
2338.9045,0.004218
2340.7682,0.003734
2342.6318,0.004160
2344.4955,0.004728
2346.3592,0.004235
2348.2228,0.003374
2350.0865,0.002977
2351.9502,0.003065
2353.8138,0.003390
2355.6775,0.003823
2357.5412,0.004388
2359.4049,0.004202
2361.2685,0.003285
2363.1322,0.003556
2364.9959,0.004694
2366.8595,0.004885
2368.7232,0.004374
2370.5869,0.004320
2372.4505,0.004713
2374.3142,0.004387
2376.1779,0.003972
2378.0415,0.004182
2379.9052,0.004325
2381.7689,0.004135
2383.6325,0.004108
2385.4962,0.004193
2387.3599,0.003918
2389.2236,0.003556
2391.0872,0.003603
2392.9509,0.003845
2394.8146,0.004004
2396.6782,0.004216
2398.5419,0.004329
2400.4056,0.004206
2402.2692,0.004058
2404.1329,0.004010
2405.9966,0.004189
2407.8602,0.004417
2409.7239,0.004487
2411.5876,0.004534
2413.4512,0.004463
2415.3149,0.004430
2417.1786,0.004586
2419.0423,0.004583
2420.9059,0.004555
2422.7696,0.004833
2424.6333,0.005035
2426.4969,0.004921
2428.3606,0.004879
2430.2243,0.004949
2432.0879,0.004906
2433.9516,0.005021
2435.8153,0.005313
2437.6789,0.005438
2439.5426,0.005274
2441.4063,0.005095
2443.2700,0.005365
2445.1336,0.005599
2446.9973,0.005415
2448.8610,0.005262
2450.7246,0.005300
2452.5883,0.005423
2454.4520,0.005644
2456.3156,0.006025
2458.1793,0.006071
2460.0430,0.005786
2461.9066,0.005718
2463.7703,0.005521
2465.6340,0.005590
2467.4976,0.005488
2469.3613,0.005195
2471.2250,0.005635
2473.0887,0.005911
2474.9523,0.005864
2476.8160,0.005891
2478.6797,0.005884
2480.5433,0.006128
2482.4070,0.006397
2484.2707,0.006147
2486.1343,0.005950
2487.9980,0.006132
2489.8617,0.006199
2491.7253,0.006148
2493.5890,0.006092
2495.4527,0.006168
2497.3164,0.006272
2499.1800,0.006249
2501.0437,0.006288
2502.9074,0.006406
2504.7710,0.006442
2506.6347,0.006496
2508.4984,0.006780
2510.3620,0.006714
2512.2257,0.006266
2514.0894,0.006141
2515.9530,0.006330
2517.8167,0.006348
2519.6804,0.006292
2521.5440,0.006365
2523.4077,0.006577
2525.2714,0.006980
2527.1351,0.006964
2528.9987,0.006770
2530.8624,0.006842
2532.7261,0.006811
2534.5897,0.006839
2536.4534,0.006805
2538.3171,0.006753
2540.1807,0.006910
2542.0444,0.007004
2543.9081,0.006832
2545.7717,0.006688
2547.6354,0.006931
2549.4991,0.007313
2551.3627,0.007564
2553.2264,0.007755
2555.0901,0.007934
2556.9538,0.007820
2558.8174,0.007507
2560.6811,0.007553
2562.5448,0.007667
2564.4084,0.007648
2566.2721,0.007567
2568.1358,0.007361
2569.9994,0.007138
2571.8631,0.007332
2573.7268,0.007804
2575.5904,0.008064
2577.4541,0.008038
2579.3178,0.007697
2581.1815,0.007449
2583.0451,0.007805
2584.9088,0.008329
2586.7725,0.008375
2588.6361,0.008376
2590.4998,0.008344
2592.3635,0.008184
2594.2271,0.008117
2596.0908,0.008257
2597.9545,0.008321
2599.8181,0.008502
2601.6818,0.008892
2603.5455,0.009070
2605.4091,0.008908
2607.2728,0.009061
2609.1365,0.009330
2611.0002,0.009175
2612.8638,0.009026
2614.7275,0.009137
2616.5912,0.009116
2618.4548,0.009230
2620.3185,0.009563
2622.1822,0.009484
2624.0458,0.009475
2625.9095,0.009580
