Wavenumber,Intensity
650.4205,0.030156
652.2841,0.032602
654.1478,0.031119
656.0115,0.028825
657.8751,0.028581
659.7388,0.028758
661.6025,0.027658
663.4661,0.024768
665.3298,0.024369
667.1935,0.029071
669.0571,0.031185
670.9208,0.027905
672.7845,0.026368
674.6481,0.026114
676.5118,0.025852
678.3755,0.025117
680.2392,0.024348
682.1028,0.023191
683.9665,0.022922
685.8302,0.024069
687.6938,0.024355
689.5575,0.023680
691.4212,0.023658
693.2848,0.023300
695.1485,0.022413
697.0122,0.021665
698.8758,0.022234
700.7395,0.022995
702.6032,0.022087
704.4669,0.021074
706.3305,0.020921
708.1942,0.020064
710.0579,0.019812
711.9215,0.020348
713.7852,0.019389
715.6489,0.018240
717.5125,0.018529
719.3762,0.019050
721.2399,0.018600
723.1035,0.018205
724.9672,0.018110
726.8309,0.017587
728.6945,0.016943
730.5582,0.016748
732.4219,0.017260
734.2856,0.017596
736.1492,0.017311
738.0129,0.016791
739.8766,0.016028
741.7402,0.015918
743.6039,0.016332
745.4676,0.016145
747.3312,0.015768
749.1949,0.015837
751.0586,0.015762
752.9222,0.015533
754.7859,0.015581
756.6496,0.015217
758.5132,0.014670
760.3769,0.014384
762.2406,0.014237
764.1043,0.014675
765.9679,0.014871
767.8316,0.014494
769.6953,0.014370
771.5589,0.014203
773.4226,0.013815
775.2863,0.013500
777.1499,0.013290
779.0136,0.013226
780.8773,0.013320
782.7409,0.013542
784.6046,0.013641
786.4683,0.013321
788.3320,0.012750
790.1956,0.012587
792.0593,0.012675
793.9230,0.012435
795.7866,0.012333
797.6503,0.012442
799.5140,0.012467
801.3776,0.012591
803.2413,0.012323
805.1050,0.011957
806.9686,0.012140
808.8323,0.012346
810.6960,0.012131
812.5596,0.011920
814.4233,0.011883
816.2870,0.012095
818.1507,0.012307
820.0143,0.011975
821.8780,0.011576
823.7417,0.011362
825.6053,0.011180
827.4690,0.011151
829.3327,0.011257
831.1963,0.011413
833.0600,0.011500
834.9237,0.011263
836.7873,0.011014
838.6510,0.011052
840.5147,0.011173
842.3784,0.011248
844.2420,0.011198
846.1057,0.011075
847.9694,0.011090
849.8330,0.011270
851.6967,0.011372
853.5604,0.011443
855.4240,0.011445
857.2877,0.011323
859.1514,0.011465
861.0150,0.011619
862.8787,0.011503
864.7424,0.011530
866.6060,0.011746
868.4697,0.012021
870.3334,0.012210
872.1971,0.012004
874.0607,0.011676
875.9244,0.011734
877.7881,0.011863
879.6517,0.011734
881.5154,0.011581
883.3791,0.011502
885.2427,0.011366
887.1064,0.011229
888.9701,0.011162
890.8337,0.011040
892.6974,0.011066
894.5611,0.011199
896.4247,0.011157
898.2884,0.011039
900.1521,0.010972
902.0158,0.011071
903.8794,0.011015
905.7431,0.010872
907.6068,0.010939
909.4704,0.011068
911.3341,0.011113
913.1978,0.011104
915.0614,0.011132
916.9251,0.011340
918.7888,0.011554
920.6524,0.011652
922.5161,0.011689
924.3798,0.011730
926.2435,0.011673
928.1071,0.011677
929.9708,0.011702
931.8345,0.011596
933.6981,0.011611
935.5618,0.011803
937.4255,0.011933
939.2891,0.011998
941.1528,0.012193
943.0165,0.012466
944.8801,0.012647
946.7438,0.012786
948.6075,0.012950
950.4711,0.013137
952.3348,0.013280
954.1985,0.013495
956.0622,0.013893
957.9258,0.014330
959.7895,0.014737
961.6532,0.015249
963.5168,0.015900
965.3805,0.016480
967.2442,0.016959
969.1078,0.017436
970.9715,0.017747
972.8352,0.017956
974.6988,0.018292
976.5625,0.018727
978.4262,0.019084
980.2899,0.019449
982.1535,0.019872
984.0172,0.020292
985.8809,0.020734
987.7445,0.021164
989.6082,0.021579
991.4719,0.022086
993.3355,0.022695
995.1992,0.023192
997.0629,0.023594
998.9265,0.023993
1000.7902,0.024301
1002.6539,0.024692
1004.5175,0.025162
1006.3812,0.025590
1008.2449,0.026080
1010.1086,0.026675
1011.9722,0.027388
1013.8359,0.028281
1015.6996,0.029141
1017.5632,0.029963
1019.4269,0.030770
1021.2906,0.031566
1023.1542,0.032263
1025.0179,0.032689
1026.8816,0.033015
1028.7452,0.033525
1030.6089,0.033972
1032.4726,0.034159
1034.3362,0.034433
1036.1999,0.034771
1038.0636,0.034981
1039.9273,0.035173
1041.7909,0.035404
1043.6546,0.035519
1045.5183,0.035470
1047.3819,0.035502
1049.2456,0.035615
1051.1093,0.035681
1052.9729,0.035737
1054.8366,0.035887
1056.7003,0.036145
1058.5639,0.036293
1060.4276,0.036481
1062.2913,0.036722
1064.1550,0.036865
1066.0186,0.036961
1067.8823,0.037142
1069.7460,0.037310
1071.6096,0.037344
1073.4733,0.037196
1075.3370,0.036951
1077.2006,0.036528
1079.0643,0.035900
1080.9280,0.035209
1082.7916,0.034458
1084.6553,0.033676
1086.5190,0.032906
1088.3826,0.032109
1090.2463,0.031359
1092.1100,0.030834
1093.9737,0.030280
1095.8373,0.029561
1097.7010,0.028915
1099.5647,0.028433
1101.4283,0.027968
1103.2920,0.027528
1105.1557,0.027130
1107.0193,0.026790
1108.8830,0.026492
1110.7467,0.026199
1112.6103,0.025926
1114.4740,0.025557
1116.3377,0.025164
1118.2014,0.024881
1120.0650,0.024597
1121.9287,0.024262
1123.7924,0.023914
1125.6560,0.023604
1127.5197,0.023168
1129.3834,0.022691
1131.2470,0.022225
1133.1107,0.021684
1134.9744,0.021239
1136.8380,0.020843
1138.7017,0.020296
1140.5654,0.019810
1142.4290,0.019425
1144.2927,0.018975
1146.1564,0.018561
1148.0201,0.018206
1149.8837,0.017960
1151.7474,0.017841
1153.6111,0.017739
1155.4747,0.017511
1157.3384,0.017270
1159.2021,0.017027
1161.0657,0.016713
1162.9294,0.016346
1164.7931,0.015909
1166.6567,0.015404
1168.5204,0.014830
1170.3841,0.014240
1172.2477,0.013649
1174.1114,0.013107
1175.9751,0.012591
1177.8388,0.012141
1179.7024,0.011765
1181.5661,0.011483
1183.4298,0.011352
1185.2934,0.011264
1187.1571,0.011283
1189.0208,0.011380
1190.8844,0.011414
1192.7481,0.011440
1194.6118,0.011616
1196.4754,0.011975
1198.3391,0.012259
1200.2028,0.012525
1202.0665,0.012750
1203.9301,0.012909
1205.7938,0.013022
1207.6575,0.013121
1209.5211,0.013215
1211.3848,0.013304
1213.2485,0.013359
1215.1121,0.013443
1216.9758,0.013574
1218.8395,0.013784
1220.7031,0.014088
1222.5668,0.014446
1224.4305,0.014797
1226.2941,0.015235
1228.1578,0.015714
1230.0215,0.016151
1231.8852,0.016485
1233.7488,0.016843
1235.6125,0.017121
1237.4762,0.017242
1239.3398,0.017437
1241.2035,0.017594
1243.0672,0.017605
1244.9308,0.017436
1246.7945,0.017165
1248.6582,0.016983
1250.5218,0.016755
1252.3855,0.016444
1254.2492,0.016182
1256.1129,0.015953
1257.9765,0.015694
1259.8402,0.015538
1261.7039,0.015425
1263.5675,0.015381
1265.4312,0.015349
1267.2949,0.015265
1269.1585,0.015155
1271.0222,0.015047
1272.8859,0.014983
1274.7495,0.014912
1276.6132,0.014903
1278.4769,0.014867
1280.3405,0.014785
1282.2042,0.014652
1284.0679,0.014559
1285.9316,0.014596
1287.7952,0.014590
1289.6589,0.014528
1291.5226,0.014488
1293.3862,0.014489
1295.2499,0.014644
1297.1136,0.014854
1298.9772,0.015102
1300.8409,0.015340
1302.7046,0.015589
1304.5682,0.015850
1306.4319,0.016111
1308.2956,0.016292
1310.1592,0.016421
1312.0229,0.016612
1313.8866,0.016812
1315.7503,0.016933
1317.6139,0.016841
1319.4776,0.016692
1321.3413,0.016575
1323.2049,0.016554
1325.0686,0.016524
1326.9323,0.016404
1328.7959,0.016330
1330.6596,0.016337
1332.5233,0.016383
1334.3869,0.016445
1336.2506,0.016460
1338.1143,0.016411
1339.9780,0.016437
1341.8416,0.016550
1343.7053,0.016405
1345.5690,0.016188
1347.4326,0.016190
1349.2963,0.016157
1351.1600,0.016054
1353.0236,0.016023
1354.8873,0.015883
1356.7510,0.015815
1358.6146,0.015842
1360.4783,0.015849
1362.3420,0.016007
1364.2056,0.016532
1366.0693,0.016983
1367.9330,0.017379
1369.7967,0.017916
1371.6603,0.018353
1373.5240,0.018772
1375.3877,0.019299
1377.2513,0.019655
1379.1150,0.019934
1380.9787,0.020240
1382.8423,0.020556
1384.7060,0.020826
1386.5697,0.021091
1388.4333,0.021689
1390.2970,0.022133
1392.1607,0.022306
1394.0244,0.022631
1395.8880,0.023254
1397.7517,0.023482
1399.6154,0.023809
1401.4790,0.024046
1403.3427,0.023969
1405.2064,0.023936
1407.0700,0.023862
1408.9337,0.023612
1410.7974,0.023434
1412.6610,0.023052
1414.5247,0.022505
1416.3884,0.022027
1418.2520,0.021503
1420.1157,0.021485
1421.9794,0.021443
1423.8431,0.021277
1425.7067,0.021351
1427.5704,0.021495
1429.4341,0.021883
1431.2977,0.022398
1433.1614,0.022682
1435.0251,0.022795
1436.8887,0.023354
1438.7524,0.024161
1440.6161,0.024342
1442.4797,0.024518
1444.3434,0.024582
1446.2071,0.024422
1448.0707,0.024291
1449.9344,0.024223
1451.7981,0.023812
1453.6618,0.023244
1455.5254,0.022407
1457.3891,0.021597
1459.2528,0.021021
1461.1164,0.020358
1462.9801,0.019501
1464.8438,0.018794
1466.7074,0.018314
1468.5711,0.017643
1470.4348,0.016665
1472.2984,0.015954
1474.1621,0.015686
1476.0258,0.015179
1477.8895,0.014763
1479.7531,0.014584
1481.6168,0.014436
1483.4805,0.014420
1485.3441,0.014483
1487.2078,0.014776
1489.0715,0.015394
1490.9351,0.016406
1492.7988,0.017236
1494.6625,0.017700
1496.5261,0.018903
1498.3898,0.020527
1500.2535,0.021749
1502.1171,0.022509
1503.9808,0.022947
1505.8445,0.024180
1507.7082,0.027249
1509.5718,0.028602
1511.4355,0.029261
1513.2992,0.030290
1515.1628,0.031039
1517.0265,0.031962
1518.8902,0.032747
1520.7538,0.033021
1522.6175,0.033924
1524.4812,0.034297
1526.3448,0.034921
1528.2085,0.035552
1530.0722,0.035859
1531.9359,0.035768
1533.7995,0.036238
1535.6632,0.036694
1537.5269,0.036126
1539.3905,0.036009
1541.2542,0.036593
1543.1179,0.036419
1544.9815,0.036383
1546.8452,0.036099
1548.7089,0.035521
1550.5725,0.035094
1552.4362,0.034411
1554.2999,0.033692
1556.1635,0.032812
1558.0272,0.031511
1559.8909,0.031582
1561.7546,0.031132
1563.6182,0.030109
1565.4819,0.029261
1567.3456,0.028520
1569.2092,0.027740
1571.0729,0.027320
1572.9366,0.026788
1574.8002,0.025964
1576.6639,0.025618
1578.5276,0.025630
1580.3912,0.025335
1582.2549,0.025126
1584.1186,0.024995
1585.9822,0.024975
1587.8459,0.025153
1589.7096,0.025532
1591.5733,0.025926
1593.4369,0.026489
1595.3006,0.027217
1597.1643,0.027853
1599.0279,0.028507
1600.8916,0.029540
1602.7553,0.030666
1604.6189,0.031688
1606.4826,0.032812
1608.3463,0.034080
1610.2099,0.035411
1612.0736,0.036545
1613.9373,0.037296
1615.8010,0.038527
1617.6646,0.040700
1619.5283,0.041686
1621.3920,0.042294
1623.2556,0.043486
1625.1193,0.044745
1626.9830,0.045350
1628.8466,0.046230
1630.7103,0.046926
1632.5740,0.046682
1634.4376,0.046089
1636.3013,0.046837
1638.1650,0.047208
1640.0286,0.046744
1641.8923,0.046351
1643.7560,0.045728
1645.6197,0.044803
1647.4833,0.044107
1649.3470,0.043848
1651.2107,0.042562
1653.0743,0.041213
1654.9380,0.040930
1656.8017,0.040160
1658.6653,0.039132
1660.5290,0.037764
1662.3927,0.036183
1664.2563,0.035241
1666.1200,0.034162
1667.9837,0.032608
1669.8474,0.030822
1671.7110,0.029410
1673.5747,0.027871
1675.4384,0.026062
1677.3020,0.024479
1679.1657,0.022950
1681.0294,0.021131
1682.8930,0.018804
1684.7567,0.016274
1686.6204,0.014811
1688.4840,0.013291
1690.3477,0.011689
1692.2114,0.009863
1694.0750,0.007840
1695.9387,0.005603
1697.8024,0.003800
1699.6661,0.001691
1701.5297,0.000398
1703.3934,-0.000383
1705.2571,-0.001772
1707.1207,-0.002939
1708.9844,-0.003584
1710.8481,-0.004094
1712.7117,-0.004562
1714.5754,-0.005165
1716.4391,-0.005894
1718.3027,-0.006122
1720.1664,-0.005852
1722.0301,-0.006121
1723.8937,-0.006392
1725.7574,-0.006347
1727.6211,-0.006462
1729.4848,-0.006535
1731.3484,-0.006587
1733.2121,-0.007364
1735.0758,-0.007278
1736.9394,-0.006887
1738.8031,-0.007398
1740.6668,-0.007440
1742.5304,-0.007235
1744.3941,-0.007316
1746.2578,-0.007399
1748.1214,-0.007531
1749.9851,-0.007640
1751.8488,-0.007628
1753.7125,-0.007365
1755.5761,-0.007584
1757.4398,-0.007788
1759.3035,-0.007809
1761.1671,-0.007861
1763.0308,-0.007732
1764.8945,-0.007507
1766.7581,-0.007508
1768.6218,-0.007683
1770.4855,-0.008163
1772.3491,-0.008337
1774.2128,-0.008013
1776.0765,-0.007888
1777.9401,-0.007812
1779.8038,-0.007676
1781.6675,-0.007535
1783.5312,-0.007598
1785.3948,-0.007607
1787.2585,-0.007494
1789.1222,-0.007611
1790.9858,-0.007947
1792.8495,-0.008030
1794.7132,-0.007860
1796.5768,-0.007707
1798.4405,-0.007747
1800.3042,-0.007940
1802.1678,-0.007866
1804.0315,-0.007726
1805.8952,-0.007736
1807.7589,-0.007850
1809.6225,-0.007601
1811.4862,-0.007598
1813.3499,-0.007731
1815.2135,-0.007854
1817.0772,-0.007870
1818.9409,-0.007432
1820.8045,-0.007204
1822.6682,-0.007326
1824.5319,-0.007446
1826.3955,-0.007459
1828.2592,-0.007440
1830.1229,-0.007597
1831.9865,-0.007668
1833.8502,-0.007507
1835.7139,-0.007235
1837.5776,-0.007197
1839.4412,-0.007060
1841.3049,-0.006802
1843.1686,-0.006869
1845.0322,-0.007116
1846.8959,-0.007221
1848.7596,-0.007212
1850.6232,-0.007347
1852.4869,-0.007290
1854.3506,-0.006900
1856.2142,-0.006661
1858.0779,-0.006840
1859.9416,-0.007109
1861.8052,-0.006871
1863.6689,-0.006723
1865.5326,-0.006967
1867.3963,-0.007165
1869.2599,-0.006581
1871.1236,-0.006025
1872.9873,-0.006183
1874.8509,-0.006814
1876.7146,-0.007169
1878.5783,-0.006814
1880.4419,-0.006667
1882.3056,-0.006868
1884.1693,-0.006703
1886.0329,-0.006604
1887.8966,-0.006552
1889.7603,-0.006430
1891.6240,-0.006120
1893.4876,-0.005902
1895.3513,-0.005815
1897.2150,-0.006204
1899.0786,-0.006759
1900.9423,-0.006982
1902.8060,-0.006857
1904.6696,-0.006283
1906.5333,-0.005797
1908.3970,-0.005989
1910.2606,-0.006026
1912.1243,-0.005896
1913.9880,-0.006006
1915.8516,-0.006297
1917.7153,-0.006381
1919.5790,-0.006309
1921.4427,-0.006244
1923.3063,-0.005926
1925.1700,-0.005764
1927.0337,-0.006076
1928.8973,-0.006070
1930.7610,-0.005693
1932.6247,-0.005405
1934.4883,-0.005454
1936.3520,-0.005222
1938.2157,-0.004835
1940.0793,-0.004740
1941.9430,-0.004388
1943.8067,-0.004100
1945.6704,-0.004984
1947.5340,-0.005555
1949.3977,-0.004913
1951.2614,-0.004773
1953.1250,-0.004718
1954.9887,-0.004132
1956.8524,-0.004296
1958.7160,-0.004059
1960.5797,-0.002791
1962.4434,-0.001958
1964.3070,-0.002645
1966.1707,-0.002878
1968.0344,-0.002978
1969.8980,-0.003461
1971.7617,-0.003872
1973.6254,-0.003332
1975.4891,-0.001181
1977.3527,-0.000575
1979.2164,-0.001341
1981.0801,-0.001721
1982.9437,-0.001909
1984.8074,-0.002500
1986.6711,-0.001810
1988.5347,-0.000838
1990.3984,-0.001517
1992.2621,-0.001982
1994.1257,-0.002295
1995.9894,-0.003046
1997.8531,-0.003052
1999.7167,-0.002952
2001.5804,-0.002938
2003.4441,-0.002924
2005.3078,-0.003285
2007.1714,-0.002729
2009.0351,-0.001928
2010.8988,-0.001635
2012.7624,-0.001900
2014.6261,-0.001968
2016.4898,-0.001304
2018.3534,-0.000938
2020.2171,-0.001650
2022.0808,-0.001993
2023.9444,-0.001905
2025.8081,-0.000987
2027.6718,0.000107
2029.5355,-0.000347
2031.3991,-0.001306
2033.2628,-0.000558
2035.1265,0.000680
2036.9901,0.000326
2038.8538,-0.000468
2040.7175,-0.000416
2042.5811,-0.000080
2044.4448,0.000376
2046.3085,0.000830
2048.1721,0.001040
2050.0358,0.000130
2051.8995,-0.001127
2053.7631,-0.001259
2055.6268,-0.001655
2057.4905,-0.002353
2059.3542,-0.002124
2061.2178,-0.002070
2063.0815,-0.002224
2064.9452,-0.002011
2066.8088,-0.002211
2068.6725,-0.002458
2070.5362,-0.002413
2072.3998,-0.002434
2074.2635,-0.002411
2076.1272,-0.002382
2077.9908,-0.003010
2079.8545,-0.003514
2081.7182,-0.002788
2083.5819,-0.002661
2085.4455,-0.003880
2087.3092,-0.004517
2089.1729,-0.004404
2091.0365,-0.004445
2092.9002,-0.004775
2094.7639,-0.005040
2096.6275,-0.004877
2098.4912,-0.004549
2100.3549,-0.004276
2102.2185,-0.004163
2104.0822,-0.004497
2105.9459,-0.004897
2107.8095,-0.004447
2109.6732,-0.004446
2111.5369,-0.004884
2113.4006,-0.004655
2115.2642,-0.004480
2117.1279,-0.004683
2118.9916,-0.004660
2120.8552,-0.004507
2122.7189,-0.005198
2124.5826,-0.005888
2126.4462,-0.005425
2128.3099,-0.005365
2130.1736,-0.005610
2132.0372,-0.005509
2133.9009,-0.005832
2135.7646,-0.005382
2137.6282,-0.003844
2139.4919,-0.003295
2141.3556,-0.003821
2143.2193,-0.004246
2145.0829,-0.004181
2146.9466,-0.003949
2148.8103,-0.003355
2150.6739,-0.002874
2152.5376,-0.002554
2154.4013,-0.001696
2156.2649,-0.001674
2158.1286,-0.001396
2159.9923,0.000416
2161.8559,0.000781
2163.7196,-0.000212
2165.5833,-0.000488
2167.4470,-0.000232
2169.3106,0.000651
2171.1743,0.000603
2173.0380,-0.000992
2174.9016,-0.001457
2176.7653,-0.000174
2178.6290,0.000575
2180.4926,-0.001042
2182.3563,-0.002033
2184.2200,-0.000933
2186.0836,-0.000878
2187.9473,-0.001524
2189.8110,-0.001362
2191.6746,-0.001541
2193.5383,-0.002289
2195.4020,-0.002234
2197.2657,-0.001697
2199.1293,-0.001661
2200.9930,-0.002099
2202.8567,-0.002509
2204.7203,-0.001899
2206.5840,-0.001296
2208.4477,-0.002087
2210.3113,-0.002835
2212.1750,-0.002943
2214.0387,-0.002872
2215.9023,-0.002343
2217.7660,-0.001989
2219.6297,-0.002767
2221.4934,-0.003731
2223.3570,-0.003380
2225.2207,-0.002580
2227.0844,-0.002553
2228.9480,-0.002678
2230.8117,-0.002902
2232.6754,-0.003182
2234.5390,-0.002831
2236.4027,-0.002280
2238.2664,-0.002551
2240.1300,-0.003204
2241.9937,-0.003355
2243.8574,-0.003296
2245.7210,-0.003956
2247.5847,-0.004789
2249.4484,-0.004549
2251.3121,-0.003770
2253.1757,-0.004028
2255.0394,-0.004488
2256.9031,-0.003884
2258.7667,-0.003616
2260.6304,-0.003824
2262.4941,-0.003999
2264.3577,-0.004223
2266.2214,-0.004075
2268.0851,-0.003448
2269.9487,-0.003196
2271.8124,-0.003710
2273.6761,-0.004175
2275.5397,-0.004252
2277.4034,-0.004075
2279.2671,-0.003829
2281.1308,-0.003893
2282.9944,-0.004019
2284.8581,-0.004119
2286.7218,-0.004214
2288.5854,-0.004238
2290.4491,-0.004549
2292.3128,-0.004691
2294.1764,-0.004528
2296.0401,-0.004743
2297.9038,-0.005004
2299.7674,-0.005115
2301.6311,-0.005096
2303.4948,-0.004891
2305.3585,-0.004859
2307.2221,-0.005182
2309.0858,-0.005424
2310.9495,-0.005343
2312.8131,-0.005218
2314.6768,-0.005144
2316.5405,-0.004816
2318.4041,-0.004752
2320.2678,-0.005082
2322.1315,-0.004530
2323.9951,-0.003834
2325.8588,-0.004601
2327.7225,-0.005775
2329.5861,-0.006163
2331.4498,-0.006158
2333.3135,-0.006073
2335.1772,-0.005931
2337.0408,-0.005669
2338.9045,-0.005475
2340.7682,-0.005503
2342.6318,-0.005713
2344.4955,-0.005826
2346.3592,-0.005886
2348.2228,-0.006148
2350.0865,-0.006580
2351.9502,-0.006831
2353.8138,-0.006424
2355.6775,-0.005564
2357.5412,-0.005163
2359.4049,-0.006097
2361.2685,-0.006762
2363.1322,-0.006062
2364.9959,-0.005148
2366.8595,-0.005502
2368.7232,-0.005971
2370.5869,-0.005673
2372.4505,-0.005620
2374.3142,-0.005858
2376.1779,-0.006060
2378.0415,-0.006160
2379.9052,-0.006062
2381.7689,-0.005926
2383.6325,-0.005928
2385.4962,-0.005966
2387.3599,-0.006043
2389.2236,-0.006242
2391.0872,-0.006336
2392.9509,-0.006167
2394.8146,-0.006118
2396.6782,-0.006259
2398.5419,-0.006029
2400.4056,-0.005773
2402.2692,-0.005834
2404.1329,-0.005920
2405.9966,-0.005864
2407.8602,-0.005672
2409.7239,-0.005743
2411.5876,-0.005905
2413.4512,-0.005693
2415.3149,-0.005550
2417.1786,-0.005566
2419.0423,-0.005447
2420.9059,-0.005233
2422.7696,-0.005397
2424.6333,-0.005636
2426.4969,-0.005496
2428.3606,-0.005617
2430.2243,-0.005716
2432.0879,-0.005522
2433.9516,-0.005341
2435.8153,-0.005071
2437.6789,-0.004902
2439.5426,-0.004997
2441.4063,-0.004874
2443.2700,-0.004551
2445.1336,-0.004623
2446.9973,-0.004914
2448.8610,-0.004725
2450.7246,-0.004667
2452.5883,-0.004759
2454.4520,-0.004642
2456.3156,-0.004360
2458.1793,-0.004449
2460.0430,-0.004770
2461.9066,-0.004686
2463.7703,-0.004651
2465.6340,-0.004918
2467.4976,-0.004892
2469.3613,-0.004826
2471.2250,-0.005105
2473.0887,-0.004931
2474.9523,-0.004691
2476.8160,-0.004791
2478.6797,-0.005020
2480.5433,-0.004929
2482.4070,-0.004729
2484.2707,-0.004854
2486.1343,-0.004906
2487.9980,-0.004960
2489.8617,-0.004804
2491.7253,-0.004733
2493.5890,-0.004783
2495.4527,-0.004772
2497.3164,-0.004615
2499.1800,-0.004488
2501.0437,-0.004542
2502.9074,-0.004628
2504.7710,-0.004783
2506.6347,-0.004753
2508.4984,-0.004713
2510.3620,-0.004484
2512.2257,-0.004522
2514.0894,-0.004622
2515.9530,-0.004542
2517.8167,-0.004549
2519.6804,-0.004623
2521.5440,-0.004498
2523.4077,-0.004084
2525.2714,-0.004023
2527.1351,-0.004250
2528.9987,-0.004590
2530.8624,-0.004434
2532.7261,-0.004234
2534.5897,-0.004527
2536.4534,-0.004285
2538.3171,-0.003901
2540.1807,-0.003933
2542.0444,-0.004079
2543.9081,-0.004344
2545.7717,-0.004376
2547.6354,-0.004392
2549.4991,-0.004251
2551.3627,-0.003939
2553.2264,-0.003800
2555.0901,-0.003942
2556.9538,-0.004252
2558.8174,-0.004487
2560.6811,-0.004601
2562.5448,-0.004316
2564.4084,-0.004121
2566.2721,-0.004228
2568.1358,-0.004349
2569.9994,-0.004016
2571.8631,-0.003679
2573.7268,-0.003697
2575.5904,-0.004018
2577.4541,-0.004178
2579.3178,-0.004065
2581.1815,-0.004038
