Wavenumber,Intensity
650.4205,0.014052
652.2841,0.015145
654.1478,0.013638
656.0115,0.012725
657.8751,0.012599
659.7388,0.012119
661.6025,0.012972
663.4661,0.014307
665.3298,0.015536
667.1935,0.015230
669.0571,0.011134
670.9208,0.011792
672.7845,0.012969
674.6481,0.013188
676.5118,0.014362
678.3755,0.014541
680.2392,0.012991
682.1028,0.012564
683.9665,0.012662
685.8302,0.012522
687.6938,0.012184
689.5575,0.011601
691.4212,0.011925
693.2848,0.011991
695.1485,0.011045
697.0122,0.011251
698.8758,0.011817
700.7395,0.011587
702.6032,0.012400
704.4669,0.013007
706.3305,0.012153
708.1942,0.010647
710.0579,0.010429
711.9215,0.010960
713.7852,0.010768
715.6489,0.010620
717.5125,0.010255
719.3762,0.009719
721.2399,0.009870
723.1035,0.010174
724.9672,0.010128
726.8309,0.010150
728.6945,0.009898
730.5582,0.009295
732.4219,0.009225
734.2856,0.009798
736.1492,0.009696
738.0129,0.009132
739.8766,0.009143
741.7402,0.009206
743.6039,0.009317
745.4676,0.009801
747.3312,0.009953
749.1949,0.009656
751.0586,0.009359
752.9222,0.008990
754.7859,0.008547
756.6496,0.008054
758.5132,0.007927
760.3769,0.008047
762.2406,0.008055
764.1043,0.008324
765.9679,0.008791
767.8316,0.008703
769.6953,0.008302
771.5589,0.008384
773.4226,0.008545
775.2863,0.008501
777.1499,0.008183
779.0136,0.007840
780.8773,0.007937
782.7409,0.007915
784.6046,0.007710
786.4683,0.007790
788.3320,0.007833
790.1956,0.007805
792.0593,0.007729
793.9230,0.007575
795.7866,0.007627
797.6503,0.007658
799.5140,0.007230
801.3776,0.006934
803.2413,0.007140
805.1050,0.007013
806.9686,0.006894
808.8323,0.007038
810.6960,0.007090
812.5596,0.007340
814.4233,0.007499
816.2870,0.007347
818.1507,0.007337
820.0143,0.007377
821.8780,0.007182
823.7417,0.007141
825.6053,0.007165
827.4690,0.007112
829.3327,0.007171
831.1963,0.007359
833.0600,0.007482
834.9237,0.007404
836.7873,0.007574
838.6510,0.007943
840.5147,0.008008
842.3784,0.007870
844.2420,0.007848
846.1057,0.008085
847.9694,0.008345
849.8330,0.008466
851.6967,0.008447
853.5604,0.008452
855.4240,0.008548
857.2877,0.008680
859.1514,0.008764
861.0150,0.008816
862.8787,0.008876
864.7424,0.008977
866.6060,0.009154
868.4697,0.009131
870.3334,0.008896
872.1971,0.008993
874.0607,0.009182
875.9244,0.009200
877.7881,0.009151
879.6517,0.009057
881.5154,0.008956
883.3791,0.008893
885.2427,0.008751
887.1064,0.008509
888.9701,0.008527
890.8337,0.008726
892.6974,0.008657
894.5611,0.008583
896.4247,0.008708
898.2884,0.008866
900.1521,0.008998
902.0158,0.008918
903.8794,0.008770
905.7431,0.008804
907.6068,0.008976
909.4704,0.009184
911.3341,0.009352
913.1978,0.009638
915.0614,0.009938
916.9251,0.010032
918.7888,0.010175
920.6524,0.010280
922.5161,0.010321
924.3798,0.010440
926.2435,0.010467
928.1071,0.010494
929.9708,0.010397
931.8345,0.010242
933.6981,0.010335
935.5618,0.010448
937.4255,0.010427
939.2891,0.010390
941.1528,0.010349
943.0165,0.010418
944.8801,0.010522
946.7438,0.010472
948.6075,0.010326
950.4711,0.010235
952.3348,0.010224
954.1985,0.010259
956.0622,0.010271
957.9258,0.010381
959.7895,0.010647
961.6532,0.010867
963.5168,0.011044
965.3805,0.011306
967.2442,0.011554
969.1078,0.011743
970.9715,0.011911
972.8352,0.012168
974.6988,0.012348
976.5625,0.012481
978.4262,0.012694
980.2899,0.012864
982.1535,0.013013
984.0172,0.013220
985.8809,0.013372
987.7445,0.013467
989.6082,0.013516
991.4719,0.013662
993.3355,0.013840
995.1992,0.013875
997.0629,0.013900
998.9265,0.014039
1000.7902,0.014176
1002.6539,0.014264
1004.5175,0.014304
1006.3812,0.014414
1008.2449,0.014664
1010.1086,0.014940
1011.9722,0.015269
1013.8359,0.015719
1015.6996,0.016195
1017.5632,0.016688
1019.4269,0.017276
1021.2906,0.017775
1023.1542,0.018127
1025.0179,0.018470
1026.8816,0.018788
1028.7452,0.019165
1030.6089,0.019571
1032.4726,0.019927
1034.3362,0.020188
1036.1999,0.020426
1038.0636,0.020603
1039.9273,0.020776
1041.7909,0.020837
1043.6546,0.020814
1045.5183,0.020819
1047.3819,0.020747
1049.2456,0.020693
1051.1093,0.020711
1052.9729,0.020675
1054.8366,0.020627
1056.7003,0.020662
1058.5639,0.020799
1060.4276,0.020962
1062.2913,0.021096
1064.1550,0.021156
1066.0186,0.021179
1067.8823,0.021253
1069.7460,0.021346
1071.6096,0.021376
1073.4733,0.021249
1075.3370,0.020993
1077.2006,0.020767
1079.0643,0.020472
1080.9280,0.020052
1082.7916,0.019660
1084.6553,0.019269
1086.5190,0.018877
1088.3826,0.018479
1090.2463,0.018034
1092.1100,0.017734
1093.9737,0.017459
1095.8373,0.017162
1097.7010,0.016928
1099.5647,0.016730
1101.4283,0.016505
1103.2920,0.016212
1105.1557,0.015995
1107.0193,0.015858
1108.8830,0.015841
1110.7467,0.015775
1112.6103,0.015584
1114.4740,0.015343
1116.3377,0.015129
1118.2014,0.014918
1120.0650,0.014574
1121.9287,0.014256
1123.7924,0.014018
1125.6560,0.013695
1127.5197,0.013363
1129.3834,0.013081
1131.2470,0.012724
1133.1107,0.012331
1134.9744,0.011966
1136.8380,0.011571
1138.7017,0.011186
1140.5654,0.010822
1142.4290,0.010481
1144.2927,0.010257
1146.1564,0.010078
1148.0201,0.009940
1149.8837,0.009752
1151.7474,0.009523
1153.6111,0.009372
1155.4747,0.009207
1157.3384,0.008977
1159.2021,0.008709
1161.0657,0.008408
1162.9294,0.008019
1164.7931,0.007682
1166.6567,0.007386
1168.5204,0.007047
1170.3841,0.006617
1172.2477,0.006109
1174.1114,0.005702
1175.9751,0.005363
1177.8388,0.004940
1179.7024,0.004627
1181.5661,0.004471
1183.4298,0.004250
1185.2934,0.004044
1187.1571,0.003930
1189.0208,0.003879
1190.8844,0.003802
1192.7481,0.003829
1194.6118,0.003893
1196.4754,0.003881
1198.3391,0.003875
1200.2028,0.003949
1202.0665,0.004017
1203.9301,0.004075
1205.7938,0.004170
1207.6575,0.004200
1209.5211,0.004266
1211.3848,0.004335
1213.2485,0.004357
1215.1121,0.004369
1216.9758,0.004356
1218.8395,0.004434
1220.7031,0.004710
1222.5668,0.004897
1224.4305,0.004975
1226.2941,0.005127
1228.1578,0.005225
1230.0215,0.005330
1231.8852,0.005530
1233.7488,0.005679
1235.6125,0.005826
1237.4762,0.005922
1239.3398,0.005899
1241.2035,0.005837
1243.0672,0.005812
1244.9308,0.005789
1246.7945,0.005704
1248.6582,0.005629
1250.5218,0.005530
1252.3855,0.005352
1254.2492,0.005253
1256.1129,0.005166
1257.9765,0.005043
1259.8402,0.005021
1261.7039,0.004990
1263.5675,0.004863
1265.4312,0.004816
1267.2949,0.004815
1269.1585,0.004824
1271.0222,0.004896
1272.8859,0.004872
1274.7495,0.004761
1276.6132,0.004707
1278.4769,0.004730
1280.3405,0.004701
1282.2042,0.004632
1284.0679,0.004608
1285.9316,0.004645
1287.7952,0.004726
1289.6589,0.004713
1291.5226,0.004703
1293.3862,0.004767
1295.2499,0.004881
1297.1136,0.005013
1298.9772,0.005100
1300.8409,0.005146
1302.7046,0.005170
1304.5682,0.005240
1306.4319,0.005352
1308.2956,0.005499
1310.1592,0.005583
1312.0229,0.005695
1313.8866,0.005802
1315.7503,0.005812
1317.6139,0.005740
1319.4776,0.005746
1321.3413,0.005806
1323.2049,0.005778
1325.0686,0.005760
1326.9323,0.005749
1328.7959,0.005683
1330.6596,0.005609
1332.5233,0.005575
1334.3869,0.005638
1336.2506,0.005689
1338.1143,0.005709
1339.9780,0.005759
1341.8416,0.005827
1343.7053,0.005913
1345.5690,0.006016
1347.4326,0.005987
1349.2963,0.005953
1351.1600,0.005946
1353.0236,0.005889
1354.8873,0.005919
1356.7510,0.006048
1358.6146,0.006140
1360.4783,0.006206
1362.3420,0.006285
1364.2056,0.006552
1366.0693,0.006835
1367.9330,0.007082
1369.7967,0.007343
1371.6603,0.007596
1373.5240,0.007849
1375.3877,0.008214
1377.2513,0.008523
1379.1150,0.008777
1380.9787,0.008995
1382.8423,0.009176
1384.7060,0.009370
1386.5697,0.009572
1388.4333,0.010128
1390.2970,0.010463
1392.1607,0.010470
1394.0244,0.010672
1395.8880,0.011142
1397.7517,0.011449
1399.6154,0.011654
1401.4790,0.011749
1403.3427,0.011543
1405.2064,0.011443
1407.0700,0.011304
1408.9337,0.010931
1410.7974,0.010405
1412.6610,0.010030
1414.5247,0.009604
1416.3884,0.009076
1418.2520,0.008446
1420.1157,0.008230
1421.9794,0.008139
1423.8431,0.007807
1425.7067,0.007731
1427.5704,0.007554
1429.4341,0.007421
1431.2977,0.007550
1433.1614,0.007699
1435.0251,0.007733
1436.8887,0.007925
1438.7524,0.008425
1440.6161,0.008384
1442.4797,0.008306
1444.3434,0.008401
1446.2071,0.008463
1448.0707,0.008396
1449.9344,0.008393
1451.7981,0.008168
1453.6618,0.008000
1455.5254,0.007574
1457.3891,0.007313
1459.2528,0.007329
1461.1164,0.007164
1462.9801,0.006809
1464.8438,0.006418
1466.7074,0.006350
1468.5711,0.006139
1470.4348,0.005564
1472.2984,0.004865
1474.1621,0.004876
1476.0258,0.004875
1477.8895,0.004736
1479.7531,0.004486
1481.6168,0.004310
1483.4805,0.004312
1485.3441,0.004198
1487.2078,0.004305
1489.0715,0.004507
1490.9351,0.004900
1492.7988,0.005387
1494.6625,0.005580
1496.5261,0.005985
1498.3898,0.006623
1500.2535,0.007015
1502.1171,0.007319
1503.9808,0.007583
1505.8445,0.008110
1507.7082,0.009525
1509.5718,0.010280
1511.4355,0.010635
1513.2992,0.011161
1515.1628,0.011533
1517.0265,0.012008
1518.8902,0.012357
1520.7538,0.012258
1522.6175,0.013019
1524.4812,0.013520
1526.3448,0.013779
1528.2085,0.014188
1530.0722,0.014491
1531.9359,0.014581
1533.7995,0.015026
1535.6632,0.015467
1537.5269,0.015003
1539.3905,0.014845
1541.2542,0.015772
1543.1179,0.015987
1544.9815,0.015845
1546.8452,0.015845
1548.7089,0.015383
1550.5725,0.015099
1552.4362,0.014907
1554.2999,0.014401
1556.1635,0.013865
1558.0272,0.012909
1559.8909,0.013615
1561.7546,0.013821
1563.6182,0.013168
1565.4819,0.012720
1567.3456,0.012356
1569.2092,0.011891
1571.0729,0.011954
1572.9366,0.011720
1574.8002,0.011166
1576.6639,0.011253
1578.5276,0.011592
1580.3912,0.011434
1582.2549,0.011431
1584.1186,0.011600
1585.9822,0.011766
1587.8459,0.011871
1589.7096,0.011934
1591.5733,0.012095
1593.4369,0.012341
1595.3006,0.012633
1597.1643,0.012967
1599.0279,0.013296
1600.8916,0.013584
1602.7553,0.013998
1604.6189,0.014282
1606.4826,0.014669
1608.3463,0.015177
1610.2099,0.015820
1612.0736,0.016373
1613.9373,0.016567
1615.8010,0.016932
1617.6646,0.018354
1619.5283,0.019004
1621.3920,0.019127
1623.2556,0.019834
1625.1193,0.020651
1626.9830,0.021091
1628.8466,0.021602
1630.7103,0.021898
1632.5740,0.021912
1634.4376,0.022047
1636.3013,0.022947
1638.1650,0.023436
1640.0286,0.023004
1641.8923,0.022663
1643.7560,0.022291
1645.6197,0.021805
1647.4833,0.021968
1649.3470,0.021998
1651.2107,0.020867
1653.0743,0.020142
1654.9380,0.021170
1656.8017,0.020786
1658.6653,0.020000
1660.5290,0.019316
1662.3927,0.018441
1664.2563,0.017799
1666.1200,0.017102
1667.9837,0.016255
1669.8474,0.015298
1671.7110,0.014511
1673.5747,0.013555
1675.4384,0.012640
1677.3020,0.012253
1679.1657,0.011144
1681.0294,0.009788
1682.8930,0.008510
1684.7567,0.007712
1686.6204,0.007162
1688.4840,0.005927
1690.3477,0.005045
1692.2114,0.004314
1694.0750,0.003099
1695.9387,0.001715
1697.8024,0.001050
1699.6661,-0.000376
1701.5297,-0.000969
1703.3934,-0.001128
1705.2571,-0.001773
1707.1207,-0.002092
1708.9844,-0.002270
1710.8481,-0.002462
1712.7117,-0.002731
1714.5754,-0.003350
1716.4391,-0.003793
1718.3027,-0.003633
1720.1664,-0.003290
1722.0301,-0.003573
1723.8937,-0.003853
1725.7574,-0.004127
1727.6211,-0.004188
1729.4848,-0.004388
1731.3484,-0.004790
1733.2121,-0.005326
1735.0758,-0.005253
1736.9394,-0.005199
1738.8031,-0.005509
1740.6668,-0.005489
1742.5304,-0.005413
1744.3941,-0.005737
1746.2578,-0.006081
1748.1214,-0.006246
1749.9851,-0.006251
1751.8488,-0.006246
1753.7125,-0.006108
1755.5761,-0.006116
1757.4398,-0.006165
1759.3035,-0.006364
1761.1671,-0.006493
1763.0308,-0.006104
1764.8945,-0.006062
1766.7581,-0.006370
1768.6218,-0.006462
1770.4855,-0.006636
1772.3491,-0.006557
1774.2128,-0.006276
1776.0765,-0.006290
1777.9401,-0.006258
1779.8038,-0.006381
1781.6675,-0.006356
1783.5312,-0.006446
1785.3948,-0.006523
1787.2585,-0.006539
1789.1222,-0.006633
1790.9858,-0.006779
1792.8495,-0.006739
1794.7132,-0.006288
1796.5768,-0.006199
1798.4405,-0.006391
1800.3042,-0.006483
1802.1678,-0.006491
1804.0315,-0.006497
1805.8952,-0.006601
1807.7589,-0.006750
1809.6225,-0.006785
1811.4862,-0.006759
1813.3499,-0.006782
1815.2135,-0.006929
1817.0772,-0.006980
1818.9409,-0.006775
1820.8045,-0.006449
1822.6682,-0.006492
1824.5319,-0.006662
1826.3955,-0.006551
1828.2592,-0.006474
1830.1229,-0.006412
1831.9865,-0.006383
1833.8502,-0.006636
1835.7139,-0.006679
1837.5776,-0.006628
1839.4412,-0.006477
1841.3049,-0.006663
1843.1686,-0.007045
1845.0322,-0.006896
1846.8959,-0.006646
1848.7596,-0.006540
1850.6232,-0.006494
1852.4869,-0.006603
1854.3506,-0.006648
1856.2142,-0.006559
1858.0779,-0.006362
1859.9416,-0.006297
1861.8052,-0.006530
1863.6689,-0.006830
1865.5326,-0.006926
1867.3963,-0.007004
1869.2599,-0.006913
1871.1236,-0.006381
1872.9873,-0.005608
1874.8509,-0.005675
1876.7146,-0.006350
1878.5783,-0.006648
1880.4419,-0.006579
1882.3056,-0.006604
1884.1693,-0.006580
1886.0329,-0.006305
1887.8966,-0.006132
1889.7603,-0.006083
1891.6240,-0.005927
1893.4876,-0.005937
1895.3513,-0.006222
1897.2150,-0.006622
1899.0786,-0.006462
1900.9423,-0.006257
1902.8060,-0.006453
1904.6696,-0.006231
1906.5333,-0.005986
1908.3970,-0.006154
1910.2606,-0.006030
1912.1243,-0.005973
1913.9880,-0.006346
1915.8516,-0.006401
1917.7153,-0.006231
1919.5790,-0.006301
1921.4427,-0.006478
1923.3063,-0.006367
1925.1700,-0.005897
1927.0337,-0.005608
1928.8973,-0.005966
1930.7610,-0.006231
1932.6247,-0.005943
1934.4883,-0.005950
1936.3520,-0.005820
1938.2157,-0.005608
1940.0793,-0.005919
1941.9430,-0.005940
1943.8067,-0.005331
1945.6704,-0.005126
1947.5340,-0.005280
1949.3977,-0.005764
1951.2614,-0.005436
1953.1250,-0.004941
1954.9887,-0.005405
1956.8524,-0.005983
1958.7160,-0.005064
1960.5797,-0.004229
1962.4434,-0.004804
1964.3070,-0.004829
1966.1707,-0.004863
1968.0344,-0.004873
1969.8980,-0.004432
1971.7617,-0.003703
1973.6254,-0.003031
1975.4891,-0.002104
1977.3527,-0.001323
1979.2164,-0.001618
1981.0801,-0.002669
1982.9437,-0.002507
1984.8074,-0.002879
1986.6711,-0.004355
1988.5347,-0.004286
1990.3984,-0.003617
1992.2621,-0.004142
1994.1257,-0.004460
1995.9894,-0.003843
1997.8531,-0.003347
1999.7167,-0.003685
2001.5804,-0.004382
2003.4441,-0.003856
2005.3078,-0.002964
2007.1714,-0.002537
2009.0351,-0.003184
2010.8988,-0.003908
2012.7624,-0.003682
2014.6261,-0.004230
2016.4898,-0.004386
2018.3534,-0.003718
2020.2171,-0.002933
2022.0808,-0.002546
2023.9444,-0.001922
2025.8081,-0.001069
2027.6718,-0.001568
2029.5355,-0.001855
2031.3991,-0.001651
2033.2628,-0.002836
2035.1265,-0.002956
2036.9901,-0.001601
2038.8538,-0.000791
2040.7175,-0.001394
2042.5811,-0.001772
2044.4448,-0.000975
2046.3085,-0.000411
2048.1721,-0.000098
2050.0358,-0.000489
2051.8995,-0.001232
2053.7631,-0.000802
2055.6268,-0.000367
2057.4905,-0.001142
2059.3542,-0.001942
2061.2178,-0.001966
2063.0815,-0.002302
2064.9452,-0.002026
2066.8088,-0.001399
2068.6725,-0.001889
2070.5362,-0.002517
2072.3998,-0.002384
2074.2635,-0.002229
2076.1272,-0.002573
2077.9908,-0.003187
2079.8545,-0.003441
2081.7182,-0.003467
2083.5819,-0.004108
2085.4455,-0.004365
2087.3092,-0.004467
2089.1729,-0.005026
2091.0365,-0.005092
2092.9002,-0.004865
2094.7639,-0.004943
2096.6275,-0.005053
2098.4912,-0.004665
2100.3549,-0.004267
2102.2185,-0.004688
2104.0822,-0.005011
2105.9459,-0.004407
2107.8095,-0.003948
2109.6732,-0.004238
2111.5369,-0.004671
2113.4006,-0.005014
2115.2642,-0.005089
2117.1279,-0.005230
2118.9916,-0.005573
2120.8552,-0.005498
2122.7189,-0.004865
2124.5826,-0.005010
2126.4462,-0.005586
2128.3099,-0.005812
2130.1736,-0.006068
2132.0372,-0.006134
2133.9009,-0.005771
2135.7646,-0.005212
2137.6282,-0.004381
2139.4919,-0.003995
2141.3556,-0.004905
2143.2193,-0.005454
2145.0829,-0.004803
2146.9466,-0.004672
2148.8103,-0.004745
2150.6739,-0.004508
2152.5376,-0.003539
2154.4013,-0.002854
2156.2649,-0.003167
2158.1286,-0.002590
2159.9923,-0.000348
2161.8559,0.001040
2163.7196,0.000972
2165.5833,-0.000110
2167.4470,-0.002014
2169.3106,-0.003150
2171.1743,-0.003219
2173.0380,-0.002875
2174.9016,-0.002326
2176.7653,-0.001977
2178.6290,-0.002499
2180.4926,-0.002925
2182.3563,-0.003169
2184.2200,-0.003024
2186.0836,-0.002543
2187.9473,-0.002561
2189.8110,-0.002521
2191.6746,-0.002291
2193.5383,-0.002139
2195.4020,-0.002281
2197.2657,-0.002494
2199.1293,-0.003251
2200.9930,-0.003334
2202.8567,-0.002651
2204.7203,-0.002901
2206.5840,-0.003762
2208.4477,-0.003716
2210.3113,-0.003125
2212.1750,-0.003285
2214.0387,-0.003743
2215.9023,-0.003476
2217.7660,-0.002995
2219.6297,-0.002902
2221.4934,-0.003051
2223.3570,-0.003288
2225.2207,-0.003011
2227.0844,-0.002690
2228.9480,-0.002769
2230.8117,-0.003153
2232.6754,-0.003919
2234.5390,-0.004038
2236.4027,-0.003028
2238.2664,-0.002645
2240.1300,-0.003445
2241.9937,-0.003856
2243.8574,-0.003964
2245.7210,-0.004108
2247.5847,-0.003956
2249.4484,-0.004129
2251.3121,-0.004252
2253.1757,-0.004036
2255.0394,-0.003722
2256.9031,-0.003486
2258.7667,-0.003961
2260.6304,-0.004510
2262.4941,-0.004470
2264.3577,-0.004094
2266.2214,-0.003833
2268.0851,-0.003765
2269.9487,-0.003659
2271.8124,-0.003583
2273.6761,-0.003361
2275.5397,-0.003037
2277.4034,-0.003402
2279.2671,-0.004000
2281.1308,-0.003805
2282.9944,-0.003695
2284.8581,-0.004116
2286.7218,-0.004247
2288.5854,-0.004181
2290.4491,-0.004316
2292.3128,-0.004521
2294.1764,-0.004630
2296.0401,-0.004641
2297.9038,-0.004689
2299.7674,-0.004765
2301.6311,-0.004988
2303.4948,-0.004942
2305.3585,-0.004709
2307.2221,-0.005095
2309.0858,-0.005384
2310.9495,-0.004991
2312.8131,-0.004504
2314.6768,-0.004801
2316.5405,-0.005515
2318.4041,-0.005340
2320.2678,-0.004799
2322.1315,-0.004607
2323.9951,-0.004737
2325.8588,-0.005280
2327.7225,-0.005881
2329.5861,-0.005967
2331.4498,-0.005750
2333.3135,-0.005761
2335.1772,-0.006020
2337.0408,-0.006378
2338.9045,-0.006457
2340.7682,-0.006077
2342.6318,-0.005767
2344.4955,-0.005732
2346.3592,-0.005452
2348.2228,-0.005509
2350.0865,-0.006254
2351.9502,-0.006869
2353.8138,-0.006868
2355.6775,-0.006504
2357.5412,-0.006249
2359.4049,-0.006524
2361.2685,-0.006402
2363.1322,-0.006030
2364.9959,-0.005722
2366.8595,-0.005340
2368.7232,-0.005411
2370.5869,-0.005676
2372.4505,-0.005760
2374.3142,-0.005953
2376.1779,-0.006092
2378.0415,-0.005988
2379.9052,-0.005840
2381.7689,-0.005755
2383.6325,-0.005705
2385.4962,-0.005765
2387.3599,-0.005907
2389.2236,-0.005885
2391.0872,-0.005734
2392.9509,-0.005801
2394.8146,-0.005898
2396.6782,-0.005763
2398.5419,-0.005749
2400.4056,-0.005823
2402.2692,-0.005709
2404.1329,-0.005524
2405.9966,-0.005404
2407.8602,-0.005534
2409.7239,-0.005572
2411.5876,-0.005414
2413.4512,-0.005180
2415.3149,-0.004974
2417.1786,-0.005161
2419.0423,-0.005418
2420.9059,-0.005294
2422.7696,-0.005169
2424.6333,-0.005070
2426.4969,-0.005062
2428.3606,-0.005233
2430.2243,-0.005180
2432.0879,-0.005072
2433.9516,-0.005130
2435.8153,-0.005108
2437.6789,-0.004985
2439.5426,-0.004936
2441.4063,-0.004841
2443.2700,-0.004964
2445.1336,-0.004957
2446.9973,-0.004885
2448.8610,-0.004994
2450.7246,-0.005024
2452.5883,-0.004896
2454.4520,-0.004894
2456.3156,-0.005425
2458.1793,-0.005645
2460.0430,-0.005612
2461.9066,-0.005476
2463.7703,-0.005079
2465.6340,-0.005072
2467.4976,-0.005287
2469.3613,-0.005144
2471.2250,-0.004698
2473.0887,-0.004604
2474.9523,-0.004969
2476.8160,-0.005186
2478.6797,-0.005157
2480.5433,-0.005201
2482.4070,-0.005281
2484.2707,-0.005387
2486.1343,-0.005462
2487.9980,-0.005401
2489.8617,-0.005153
2491.7253,-0.004883
2493.5890,-0.004905
2495.4527,-0.004891
2497.3164,-0.004861
2499.1800,-0.005095
2501.0437,-0.005248
2502.9074,-0.005330
2504.7710,-0.005462
2506.6347,-0.005450
2508.4984,-0.005272
2510.3620,-0.005219
2512.2257,-0.005364
2514.0894,-0.005426
2515.9530,-0.005264
2517.8167,-0.005060
2519.6804,-0.005072
2521.5440,-0.005065
2523.4077,-0.004857
2525.2714,-0.004992
2527.1351,-0.005258
2528.9987,-0.005393
2530.8624,-0.005440
2532.7261,-0.005507
2534.5897,-0.005586
2536.4534,-0.005386
2538.3171,-0.005282
2540.1807,-0.005457
2542.0444,-0.005426
2543.9081,-0.005064
2545.7717,-0.004975
2547.6354,-0.004951
2549.4991,-0.005024
2551.3627,-0.005313
2553.2264,-0.005333
2555.0901,-0.005144
2556.9538,-0.005098
2558.8174,-0.005139
2560.6811,-0.005266
2562.5448,-0.005373
2564.4084,-0.005350
2566.2721,-0.005303
2568.1358,-0.005171
2569.9994,-0.005118
2571.8631,-0.004920
2573.7268,-0.004876
2575.5904,-0.004882
2577.4541,-0.004879
2579.3178,-0.004894
