Wavenumber,Intensity
650.4205,0.048178
652.2841,0.048053
654.1478,0.047660
656.0115,0.047886
657.8751,0.047524
659.7388,0.046615
661.6025,0.046906
663.4661,0.047049
665.3298,0.046105
667.1935,0.044215
669.0571,0.045569
670.9208,0.046570
672.7845,0.045343
674.6481,0.044408
676.5118,0.045324
678.3755,0.045974
680.2392,0.045345
682.1028,0.044203
683.9665,0.043266
685.8302,0.043672
687.6938,0.044572
689.5575,0.044949
691.4212,0.044238
693.2848,0.042185
695.1485,0.041820
697.0122,0.042923
698.8758,0.042484
700.7395,0.041471
702.6032,0.041271
704.4669,0.041657
706.3305,0.041809
708.1942,0.041625
710.0579,0.041064
711.9215,0.039847
713.7852,0.039320
715.6489,0.039394
717.5125,0.039071
719.3762,0.038762
721.2399,0.038599
723.1035,0.038069
724.9672,0.037325
726.8309,0.036585
728.6945,0.035601
730.5582,0.035012
732.4219,0.034994
734.2856,0.035002
736.1492,0.034734
738.0129,0.034041
739.8766,0.033635
741.7402,0.033860
743.6039,0.033830
745.4676,0.033200
747.3312,0.032950
749.1949,0.033010
751.0586,0.033111
752.9222,0.033162
754.7859,0.033018
756.6496,0.033068
758.5132,0.033036
760.3769,0.032672
762.2406,0.032277
764.1043,0.031967
765.9679,0.031696
767.8316,0.031442
769.6953,0.031056
771.5589,0.030617
773.4226,0.030554
775.2863,0.030378
777.1499,0.029992
779.0136,0.030095
780.8773,0.029956
782.7409,0.029562
784.6046,0.029602
786.4683,0.029382
788.3320,0.028683
790.1956,0.027893
792.0593,0.027167
793.9230,0.026893
795.7866,0.026681
797.6503,0.026402
799.5140,0.026261
801.3776,0.026071
803.2413,0.025933
805.1050,0.026218
806.9686,0.026219
808.8323,0.025663
810.6960,0.025700
812.5596,0.026075
814.4233,0.025932
816.2870,0.025713
818.1507,0.025635
820.0143,0.025341
821.8780,0.025142
823.7417,0.024992
825.6053,0.024435
827.4690,0.024320
829.3327,0.024449
831.1963,0.024237
833.0600,0.024442
834.9237,0.024839
836.7873,0.024787
838.6510,0.024779
840.5147,0.025097
842.3784,0.025356
844.2420,0.025283
846.1057,0.024990
847.9694,0.024934
849.8330,0.025083
851.6967,0.025142
853.5604,0.025182
855.4240,0.025259
857.2877,0.025244
859.1514,0.024895
861.0150,0.024746
862.8787,0.025013
864.7424,0.025101
866.6060,0.024771
868.4697,0.024523
870.3334,0.024417
872.1971,0.024250
874.0607,0.024228
875.9244,0.024236
877.7881,0.024009
879.6517,0.023801
881.5154,0.023856
883.3791,0.024008
885.2427,0.024004
887.1064,0.024066
888.9701,0.024512
890.8337,0.024915
892.6974,0.025130
894.5611,0.025442
896.4247,0.025800
898.2884,0.025981
900.1521,0.025984
902.0158,0.026271
903.8794,0.026634
905.7431,0.026732
907.6068,0.026741
909.4704,0.026977
911.3341,0.027494
913.1978,0.027979
915.0614,0.028389
916.9251,0.028650
918.7888,0.028706
920.6524,0.028824
922.5161,0.028929
924.3798,0.029001
926.2435,0.029120
928.1071,0.029149
929.9708,0.029011
931.8345,0.028902
933.6981,0.028848
935.5618,0.028854
937.4255,0.028860
939.2891,0.028827
941.1528,0.028930
943.0165,0.029272
944.8801,0.029714
946.7438,0.030125
948.6075,0.030603
950.4711,0.031149
952.3348,0.031717
954.1985,0.032467
956.0622,0.033336
957.9258,0.034214
959.7895,0.035109
961.6532,0.036188
963.5168,0.037302
965.3805,0.038275
967.2442,0.039128
969.1078,0.039993
970.9715,0.040939
972.8352,0.041855
974.6988,0.042844
976.5625,0.044104
978.4262,0.045516
980.2899,0.047006
982.1535,0.048528
984.0172,0.050079
985.8809,0.051501
987.7445,0.052768
989.6082,0.053795
991.4719,0.054676
993.3355,0.055459
995.1992,0.056201
997.0629,0.056864
998.9265,0.057379
1000.7902,0.057987
1002.6539,0.058694
1004.5175,0.059283
1006.3812,0.059944
1008.2449,0.060711
1010.1086,0.061455
1011.9722,0.062131
1013.8359,0.062760
1015.6996,0.063306
1017.5632,0.063735
1019.4269,0.063933
1021.2906,0.063951
1023.1542,0.063929
1025.0179,0.063719
1026.8816,0.063402
1028.7452,0.062993
1030.6089,0.062395
1032.4726,0.061879
1034.3362,0.061256
1036.1999,0.060504
1038.0636,0.059750
1039.9273,0.058923
1041.7909,0.057985
1043.6546,0.057077
1045.5183,0.056213
1047.3819,0.055456
1049.2456,0.054817
1051.1093,0.054143
1052.9729,0.053404
1054.8366,0.052683
1056.7003,0.051969
1058.5639,0.051228
1060.4276,0.050562
1062.2913,0.050060
1064.1550,0.049672
1066.0186,0.049672
1067.8823,0.050055
1069.7460,0.050531
1071.6096,0.050878
1073.4733,0.050982
1075.3370,0.050871
1077.2006,0.050306
1079.0643,0.049217
1080.9280,0.047773
1082.7916,0.046321
1084.6553,0.044924
1086.5190,0.043603
1088.3826,0.042601
1090.2463,0.042024
1092.1100,0.041688
1093.9737,0.041486
1095.8373,0.041428
1097.7010,0.041450
1099.5647,0.041369
1101.4283,0.041284
1103.2920,0.041179
1105.1557,0.040910
1107.0193,0.040653
1108.8830,0.040400
1110.7467,0.040065
1112.6103,0.039694
1114.4740,0.039287
1116.3377,0.038697
1118.2014,0.038022
1120.0650,0.037449
1121.9287,0.036830
1123.7924,0.036201
1125.6560,0.035601
1127.5197,0.035056
1129.3834,0.034788
1131.2470,0.034745
1133.1107,0.034842
1134.9744,0.035181
1136.8380,0.035782
1138.7017,0.036534
1140.5654,0.037395
1142.4290,0.038120
1144.2927,0.038634
1146.1564,0.038922
1148.0201,0.038887
1149.8837,0.038608
1151.7474,0.038028
1153.6111,0.037324
1155.4747,0.036488
1157.3384,0.035351
1159.2021,0.034078
1161.0657,0.032948
1162.9294,0.031914
1164.7931,0.030786
1166.6567,0.029762
1168.5204,0.028894
1170.3841,0.028053
1172.2477,0.027148
1174.1114,0.026333
1175.9751,0.025591
1177.8388,0.024962
1179.7024,0.024427
1181.5661,0.024012
1183.4298,0.023772
1185.2934,0.023644
1187.1571,0.023570
1189.0208,0.023731
1190.8844,0.023957
1192.7481,0.024120
1194.6118,0.024436
1196.4754,0.024832
1198.3391,0.025067
1200.2028,0.025256
1202.0665,0.025620
1203.9301,0.025962
1205.7938,0.026088
1207.6575,0.026197
1209.5211,0.026375
1211.3848,0.026648
1213.2485,0.026915
1215.1121,0.027110
1216.9758,0.027483
1218.8395,0.028012
1220.7031,0.028524
1222.5668,0.029019
1224.4305,0.029620
1226.2941,0.030189
1228.1578,0.030572
1230.0215,0.030903
1231.8852,0.031156
1233.7488,0.031464
1235.6125,0.031671
1237.4762,0.031683
1239.3398,0.031587
1241.2035,0.031558
1243.0672,0.031548
1244.9308,0.031379
1246.7945,0.031020
1248.6582,0.030672
1250.5218,0.030417
1252.3855,0.030251
1254.2492,0.030024
1256.1129,0.029735
1257.9765,0.029600
1259.8402,0.029434
1261.7039,0.029134
1263.5675,0.028954
1265.4312,0.028926
1267.2949,0.028767
1269.1585,0.028467
1271.0222,0.028301
1272.8859,0.028155
1274.7495,0.027988
1276.6132,0.027917
1278.4769,0.028076
1280.3405,0.028088
1282.2042,0.027927
1284.0679,0.027858
1285.9316,0.027841
1287.7952,0.027826
1289.6589,0.027781
1291.5226,0.027888
1293.3862,0.028094
1295.2499,0.028297
1297.1136,0.028569
1298.9772,0.028746
1300.8409,0.028920
1302.7046,0.029173
1304.5682,0.029352
1306.4319,0.029483
1308.2956,0.029580
1310.1592,0.029645
1312.0229,0.029755
1313.8866,0.029785
1315.7503,0.029746
1317.6139,0.029738
1319.4776,0.029712
1321.3413,0.029578
1323.2049,0.029408
1325.0686,0.029312
1326.9323,0.029295
1328.7959,0.029260
1330.6596,0.029259
1332.5233,0.029288
1334.3869,0.029373
1336.2506,0.029431
1338.1143,0.029599
1339.9780,0.029972
1341.8416,0.030089
1343.7053,0.029990
1345.5690,0.029989
1347.4326,0.029995
1349.2963,0.030131
1351.1600,0.030333
1353.0236,0.030384
1354.8873,0.030428
1356.7510,0.030402
1358.6146,0.030317
1360.4783,0.030329
1362.3420,0.030778
1364.2056,0.031453
1366.0693,0.031539
1367.9330,0.031609
1369.7967,0.031777
1371.6603,0.031683
1373.5240,0.032052
1375.3877,0.032739
1377.2513,0.032708
1379.1150,0.032545
1380.9787,0.032438
1382.8423,0.032227
1384.7060,0.031959
1386.5697,0.032075
1388.4333,0.032403
1390.2970,0.032085
1392.1607,0.031831
1394.0244,0.032002
1395.8880,0.032437
1397.7517,0.032559
1399.6154,0.032862
1401.4790,0.032858
1403.3427,0.032742
1405.2064,0.033142
1407.0700,0.033390
1408.9337,0.033476
1410.7974,0.033561
1412.6610,0.033583
1414.5247,0.033440
1416.3884,0.032948
1418.2520,0.032806
1420.1157,0.033215
1421.9794,0.032754
1423.8431,0.032427
1425.7067,0.032501
1427.5704,0.032411
1429.4341,0.032705
1431.2977,0.033209
1433.1614,0.033181
1435.0251,0.033055
1436.8887,0.034070
1438.7524,0.034901
1440.6161,0.034887
1442.4797,0.034948
1444.3434,0.034906
1446.2071,0.034956
1448.0707,0.035252
1449.9344,0.035488
1451.7981,0.035135
1453.6618,0.034463
1455.5254,0.033773
1457.3891,0.034063
1459.2528,0.033844
1461.1164,0.032769
1462.9801,0.031639
1464.8438,0.031338
1466.7074,0.030678
1468.5711,0.028825
1470.4348,0.026486
1472.2984,0.024772
1474.1621,0.024168
1476.0258,0.023517
1477.8895,0.022995
1479.7531,0.022636
1481.6168,0.022650
1483.4805,0.022539
1485.3441,0.022264
1487.2078,0.022575
1489.0715,0.023879
1490.9351,0.025442
1492.7988,0.025847
1494.6625,0.025947
1496.5261,0.027440
1498.3898,0.029291
1500.2535,0.030310
1502.1171,0.030533
1503.9808,0.030322
1505.8445,0.031222
1507.7082,0.034606
1509.5718,0.035877
1511.4355,0.036421
1513.2992,0.037131
1515.1628,0.037401
1517.0265,0.037783
1518.8902,0.037880
1520.7538,0.037910
1522.6175,0.038891
1524.4812,0.039120
1526.3448,0.039457
1528.2085,0.039758
1530.0722,0.039502
1531.9359,0.039294
1533.7995,0.040001
1535.6632,0.039788
1537.5269,0.038426
1539.3905,0.037750
1541.2542,0.038533
1543.1179,0.038591
1544.9815,0.038441
1546.8452,0.037909
1548.7089,0.037053
1550.5725,0.036378
1552.4362,0.035396
1554.2999,0.034302
1556.1635,0.032979
1558.0272,0.031811
1559.8909,0.032439
1561.7546,0.032048
1563.6182,0.031065
1565.4819,0.030206
1567.3456,0.029433
1569.2092,0.029116
1571.0729,0.029076
1572.9366,0.028371
1574.8002,0.027840
1576.6639,0.028550
1578.5276,0.028765
1580.3912,0.028401
1582.2549,0.028448
1584.1186,0.028614
1585.9822,0.028961
1587.8459,0.029335
1589.7096,0.029653
1591.5733,0.030165
1593.4369,0.030978
1595.3006,0.031684
1597.1643,0.032431
1599.0279,0.033132
1600.8916,0.033878
1602.7553,0.034761
1604.6189,0.035836
1606.4826,0.036762
1608.3463,0.037880
1610.2099,0.039301
1612.0736,0.040248
1613.9373,0.040807
1615.8010,0.041562
1617.6646,0.043198
1619.5283,0.044211
1621.3920,0.044477
1623.2556,0.045198
1625.1193,0.046039
1626.9830,0.046428
1628.8466,0.047023
1630.7103,0.047496
1632.5740,0.047112
1634.4376,0.046125
1636.3013,0.046164
1638.1650,0.046771
1640.0286,0.046807
1641.8923,0.046734
1643.7560,0.046154
1645.6197,0.045278
1647.4833,0.045031
1649.3470,0.044661
1651.2107,0.043123
1653.0743,0.041531
1654.9380,0.041774
1656.8017,0.041226
1658.6653,0.040053
1660.5290,0.038630
1662.3927,0.037031
1664.2563,0.036035
1666.1200,0.034890
1667.9837,0.033139
1669.8474,0.031439
1671.7110,0.030214
1673.5747,0.028754
1675.4384,0.027185
1677.3020,0.025992
1679.1657,0.024555
1681.0294,0.022834
1682.8930,0.020920
1684.7567,0.019384
1686.6204,0.018362
1688.4840,0.016861
1690.3477,0.015199
1692.2114,0.013728
1694.0750,0.011983
1695.9387,0.010216
1697.8024,0.009295
1699.6661,0.008050
1701.5297,0.006778
1703.3934,0.005677
1705.2571,0.004666
1707.1207,0.003993
1708.9844,0.003482
1710.8481,0.002964
1712.7117,0.002512
1714.5754,0.002216
1716.4391,0.002142
1718.3027,0.002359
1720.1664,0.002767
1722.0301,0.002817
1723.8937,0.002952
1725.7574,0.003350
1727.6211,0.003963
1729.4848,0.004706
1731.3484,0.005563
1733.2121,0.006650
1735.0758,0.008847
1736.9394,0.009999
1738.8031,0.010820
1740.6668,0.012014
1742.5304,0.012621
1744.3941,0.012494
1746.2578,0.011715
1748.1214,0.010229
1749.9851,0.008467
1751.8488,0.006661
1753.7125,0.004968
1755.5761,0.003181
1757.4398,0.001451
1759.3035,-0.000138
1761.1671,-0.001197
1763.0308,-0.001882
1764.8945,-0.002443
1766.7581,-0.003009
1768.6218,-0.003292
1770.4855,-0.003562
1772.3491,-0.003926
1774.2128,-0.004001
1776.0765,-0.003915
1777.9401,-0.004221
1779.8038,-0.004390
1781.6675,-0.004171
1783.5312,-0.004113
1785.3948,-0.004130
1787.2585,-0.004144
1789.1222,-0.004359
1790.9858,-0.004552
1792.8495,-0.004486
1794.7132,-0.004495
1796.5768,-0.004572
1798.4405,-0.004534
1800.3042,-0.004452
1802.1678,-0.004489
1804.0315,-0.004549
1805.8952,-0.004738
1807.7589,-0.004815
1809.6225,-0.004899
1811.4862,-0.004988
1813.3499,-0.004878
1815.2135,-0.004851
1817.0772,-0.004657
1818.9409,-0.004319
1820.8045,-0.004374
1822.6682,-0.004582
1824.5319,-0.004890
1826.3955,-0.004623
1828.2592,-0.004417
1830.1229,-0.004533
1831.9865,-0.004405
1833.8502,-0.004560
1835.7139,-0.004795
1837.5776,-0.004641
1839.4412,-0.004358
1841.3049,-0.004368
1843.1686,-0.004505
1845.0322,-0.004377
1846.8959,-0.004425
1848.7596,-0.004647
1850.6232,-0.004446
1852.4869,-0.004475
1854.3506,-0.004519
1856.2142,-0.004324
1858.0779,-0.004165
1859.9416,-0.004076
1861.8052,-0.003838
1863.6689,-0.003758
1865.5326,-0.004143
1867.3963,-0.004180
1869.2599,-0.004042
1871.1236,-0.003994
1872.9873,-0.003736
1874.8509,-0.003821
1876.7146,-0.004063
1878.5783,-0.003912
1880.4419,-0.003766
1882.3056,-0.003987
1884.1693,-0.003655
1886.0329,-0.003466
1887.8966,-0.003870
1889.7603,-0.003504
1891.6240,-0.003113
1893.4876,-0.003367
1895.3513,-0.003597
1897.2150,-0.003886
1899.0786,-0.004121
1900.9423,-0.003525
1902.8060,-0.003255
1904.6696,-0.003472
1906.5333,-0.003416
1908.3970,-0.002906
1910.2606,-0.002981
1912.1243,-0.003517
1913.9880,-0.003432
1915.8516,-0.003443
1917.7153,-0.003407
1919.5790,-0.003308
1921.4427,-0.003528
1923.3063,-0.003522
1925.1700,-0.003366
1927.0337,-0.003374
1928.8973,-0.003283
1930.7610,-0.002947
1932.6247,-0.003141
1934.4883,-0.003439
1936.3520,-0.003561
1938.2157,-0.003961
1940.0793,-0.003928
1941.9430,-0.003001
1943.8067,-0.002157
1945.6704,-0.002314
1947.5340,-0.002987
1949.3977,-0.003066
1951.2614,-0.002691
1953.1250,-0.002407
1954.9887,-0.002456
1956.8524,-0.002741
1958.7160,-0.002523
1960.5797,-0.002636
1962.4434,-0.002941
1964.3070,-0.002415
1966.1707,-0.002233
1968.0344,-0.001698
1969.8980,-0.001590
1971.7617,-0.002707
1973.6254,-0.002909
1975.4891,-0.001807
1977.3527,-0.000221
1979.2164,0.000661
1981.0801,0.000362
1982.9437,-0.000136
1984.8074,-0.000457
1986.6711,-0.000482
1988.5347,-0.001215
1990.3984,-0.002302
1992.2621,-0.001984
1994.1257,-0.001968
1995.9894,-0.002496
1997.8531,-0.002232
1999.7167,-0.001764
2001.5804,-0.001548
2003.4441,-0.000969
2005.3078,-0.000505
2007.1714,-0.000488
2009.0351,-0.000505
2010.8988,-0.000666
2012.7624,-0.000610
2014.6261,0.000513
2016.4898,0.001224
2018.3534,-0.000039
2020.2171,-0.000737
2022.0808,-0.000424
2023.9444,-0.000073
2025.8081,-0.000028
2027.6718,0.000101
2029.5355,-0.000493
2031.3991,-0.000776
2033.2628,-0.000345
2035.1265,0.000233
2036.9901,0.001195
2038.8538,0.001172
2040.7175,-0.000405
2042.5811,-0.001329
2044.4448,-0.000202
2046.3085,0.000943
2048.1721,0.000875
2050.0358,0.000044
2051.8995,-0.000545
2053.7631,-0.000636
2055.6268,-0.000758
2057.4905,-0.001211
2059.3542,-0.001189
2061.2178,-0.000724
2063.0815,-0.000922
2064.9452,-0.001382
2066.8088,-0.000894
2068.6725,-0.000491
2070.5362,-0.000981
2072.3998,-0.001144
2074.2635,-0.000582
2076.1272,-0.000710
2077.9908,-0.001125
2079.8545,-0.000762
2081.7182,-0.000532
2083.5819,-0.000901
2085.4455,-0.001327
2087.3092,-0.001256
2089.1729,-0.001124
2091.0365,-0.001663
2092.9002,-0.002158
2094.7639,-0.002091
2096.6275,-0.001823
2098.4912,-0.001519
2100.3549,-0.001266
2102.2185,-0.001250
2104.0822,-0.001131
2105.9459,-0.001193
2107.8095,-0.001567
2109.6732,-0.002015
2111.5369,-0.002268
2113.4006,-0.001738
2115.2642,-0.001395
2117.1279,-0.001487
2118.9916,-0.001992
2120.8552,-0.002175
2122.7189,-0.001871
2124.5826,-0.001944
2126.4462,-0.001815
2128.3099,-0.002008
2130.1736,-0.002385
2132.0372,-0.002248
2133.9009,-0.002244
2135.7646,-0.002949
2137.6282,-0.002805
2139.4919,-0.001881
2141.3556,-0.001534
2143.2193,-0.001713
2145.0829,-0.001739
2146.9466,-0.001771
2148.8103,-0.001676
2150.6739,-0.000891
2152.5376,-0.001485
2154.4013,-0.002168
2156.2649,-0.000802
2158.1286,0.000269
2159.9923,0.001579
2161.8559,0.002575
2163.7196,0.002507
2165.5833,0.002918
2167.4470,0.002047
2169.3106,0.000540
2171.1743,0.000604
2173.0380,0.000566
2174.9016,0.000255
2176.7653,0.000034
2178.6290,-0.000219
2180.4926,0.000136
2182.3563,0.000896
2184.2200,0.000559
2186.0836,-0.000311
2187.9473,0.000146
2189.8110,0.000883
2191.6746,0.000725
2193.5383,0.000854
2195.4020,0.002069
2197.2657,0.002575
2199.1293,0.000861
2200.9930,-0.000677
2202.8567,-0.000418
2204.7203,0.000544
2206.5840,0.000701
2208.4477,0.000569
2210.3113,0.000927
2212.1750,0.000795
2214.0387,0.000383
2215.9023,0.000467
2217.7660,0.000315
2219.6297,-0.000231
2221.4934,-0.000346
2223.3570,0.000314
2225.2207,0.000738
2227.0844,0.000045
2228.9480,-0.000282
2230.8117,-0.000453
2232.6754,-0.000667
2234.5390,0.000001
2236.4027,0.000049
2238.2664,-0.000940
2240.1300,-0.001452
2241.9937,-0.000878
2243.8574,-0.000209
2245.7210,-0.000335
2247.5847,-0.000653
2249.4484,-0.000254
2251.3121,0.000073
2253.1757,-0.000295
2255.0394,-0.000100
2256.9031,0.000242
2258.7667,-0.000054
2260.6304,-0.000408
2262.4941,-0.000476
2264.3577,-0.000579
2266.2214,-0.000714
2268.0851,-0.000901
2269.9487,-0.001326
2271.8124,-0.000997
2273.6761,-0.000124
2275.5397,-0.000019
2277.4034,-0.000586
2279.2671,-0.000510
2281.1308,-0.000173
2282.9944,-0.000350
2284.8581,-0.000305
2286.7218,-0.000548
2288.5854,-0.000696
2290.4491,-0.000239
2292.3128,-0.000158
2294.1764,-0.000726
2296.0401,-0.001190
2297.9038,-0.001231
2299.7674,-0.001309
2301.6311,-0.001256
2303.4948,-0.001128
2305.3585,-0.001288
2307.2221,-0.001323
2309.0858,-0.001051
2310.9495,-0.000923
2312.8131,-0.001094
2314.6768,-0.001267
2316.5405,-0.001332
2318.4041,-0.001322
2320.2678,-0.000569
2322.1315,0.000182
2323.9951,0.000156
2325.8588,-0.000656
2327.7225,-0.001699
2329.5861,-0.001911
2331.4498,-0.001841
2333.3135,-0.001926
2335.1772,-0.001779
2337.0408,-0.001548
2338.9045,-0.001459
2340.7682,-0.001292
2342.6318,-0.001119
2344.4955,-0.001236
2346.3592,-0.001500
2348.2228,-0.001887
2350.0865,-0.002405
2351.9502,-0.002790
2353.8138,-0.002848
2355.6775,-0.002544
2357.5412,-0.001588
2359.4049,-0.000862
2361.2685,-0.001096
2363.1322,-0.001743
2364.9959,-0.002014
2366.8595,-0.002011
2368.7232,-0.001638
2370.5869,-0.000946
2372.4505,-0.000626
2374.3142,-0.000679
2376.1779,-0.000927
2378.0415,-0.001372
2379.9052,-0.001720
2381.7689,-0.001818
2383.6325,-0.001583
2385.4962,-0.001618
2387.3599,-0.001913
2389.2236,-0.001794
2391.0872,-0.001564
2392.9509,-0.001314
2394.8146,-0.001269
2396.6782,-0.001655
2398.5419,-0.001935
2400.4056,-0.001798
2402.2692,-0.001602
2404.1329,-0.001644
2405.9966,-0.001319
2407.8602,-0.000911
2409.7239,-0.001004
2411.5876,-0.001025
2413.4512,-0.000723
2415.3149,-0.000611
2417.1786,-0.000822
2419.0423,-0.001105
2420.9059,-0.001335
2422.7696,-0.001330
2424.6333,-0.001247
2426.4969,-0.001158
2428.3606,-0.000950
2430.2243,-0.000592
2432.0879,-0.000295
2433.9516,-0.000261
2435.8153,-0.000438
2437.6789,-0.000372
2439.5426,-0.000110
2441.4063,-0.000196
2443.2700,-0.000288
2445.1336,0.000075
2446.9973,0.000270
2448.8610,0.000142
2450.7246,-0.000022
2452.5883,0.000072
2454.4520,0.000257
2456.3156,0.000290
2458.1793,0.000312
2460.0430,-0.000023
2461.9066,-0.000272
2463.7703,-0.000133
2465.6340,-0.000083
2467.4976,-0.000071
2469.3613,0.000236
2471.2250,0.000405
2473.0887,0.000252
2474.9523,0.000146
2476.8160,0.000395
2478.6797,0.000601
2480.5433,0.000315
2482.4070,0.000261
2484.2707,0.000652
2486.1343,0.000960
2487.9980,0.000940
2489.8617,0.000633
2491.7253,0.000650
2493.5890,0.000799
2495.4527,0.000888
2497.3164,0.000846
2499.1800,0.000352
2501.0437,0.000494
2502.9074,0.000993
2504.7710,0.001111
2506.6347,0.001096
2508.4984,0.001085
2510.3620,0.001022
2512.2257,0.001317
2514.0894,0.001644
2515.9530,0.001427
2517.8167,0.000844
2519.6804,0.000667
2521.5440,0.000914
2523.4077,0.000992
2525.2714,0.000913
2527.1351,0.000841
2528.9987,0.001014
2530.8624,0.001330
2532.7261,0.001533
2534.5897,0.001386
2536.4534,0.001265
2538.3171,0.001312
2540.1807,0.001397
2542.0444,0.001504
2543.9081,0.001432
2545.7717,0.001550
2547.6354,0.001947
2549.4991,0.001973
2551.3627,0.001843
2553.2264,0.001673
2555.0901,0.001228
2556.9538,0.001363
2558.8174,0.001855
2560.6811,0.001689
2562.5448,0.001374
2564.4084,0.001399
2566.2721,0.001762
2568.1358,0.001894
2569.9994,0.001820
2571.8631,0.002011
2573.7268,0.002220
2575.5904,0.002079
2577.4541,0.001944
2579.3178,0.002406
2581.1815,0.002821
2583.0451,0.002553
2584.9088,0.002329
2586.7725,0.002255
2588.6361,0.002263
2590.4998,0.002390
2592.3635,0.002804
2594.2271,0.002822
