Wavenumber,Intensity
650.4205,0.083614
652.2841,0.087553
654.1478,0.086187
656.0115,0.085825
657.8751,0.085656
659.7388,0.084081
661.6025,0.084942
663.4661,0.085172
665.3298,0.083229
667.1935,0.081256
669.0571,0.080222
670.9208,0.080097
672.7845,0.081029
674.6481,0.081375
676.5118,0.080870
678.3755,0.080097
680.2392,0.079611
682.1028,0.079727
683.9665,0.079840
685.8302,0.079149
687.6938,0.078893
689.5575,0.079810
691.4212,0.079298
693.2848,0.077715
695.1485,0.077791
697.0122,0.077975
698.8758,0.077830
700.7395,0.078164
702.6032,0.077826
704.4669,0.076275
706.3305,0.075386
708.1942,0.074917
710.0579,0.074066
711.9215,0.073162
713.7852,0.072205
715.6489,0.071356
717.5125,0.071009
719.3762,0.070683
721.2399,0.070505
723.1035,0.070312
724.9672,0.069141
726.8309,0.068191
728.6945,0.067825
730.5582,0.066725
732.4219,0.066041
734.2856,0.066064
736.1492,0.065513
738.0129,0.065042
739.8766,0.064683
741.7402,0.064158
743.6039,0.064395
745.4676,0.064709
747.3312,0.064281
749.1949,0.063539
751.0586,0.062822
752.9222,0.062532
754.7859,0.062119
756.6496,0.061897
758.5132,0.061940
760.3769,0.061057
762.2406,0.060296
764.1043,0.060380
765.9679,0.060387
767.8316,0.060310
769.6953,0.060264
771.5589,0.059931
773.4226,0.059455
775.2863,0.059131
777.1499,0.059114
779.0136,0.058831
780.8773,0.058082
782.7409,0.057702
784.6046,0.057405
786.4683,0.056654
788.3320,0.056129
790.1956,0.056049
792.0593,0.055718
793.9230,0.055427
795.7866,0.055311
797.6503,0.054913
799.5140,0.054695
801.3776,0.054553
803.2413,0.054594
805.1050,0.054601
806.9686,0.053969
808.8323,0.053649
810.6960,0.053693
812.5596,0.053735
814.4233,0.053846
816.2870,0.053592
818.1507,0.052867
820.0143,0.052329
821.8780,0.052124
823.7417,0.051760
825.6053,0.051339
827.4690,0.051048
829.3327,0.050735
831.1963,0.050575
833.0600,0.050278
834.9237,0.049820
836.7873,0.049421
838.6510,0.049024
840.5147,0.048693
842.3784,0.048541
844.2420,0.048404
846.1057,0.048121
847.9694,0.048000
849.8330,0.047989
851.6967,0.047994
853.5604,0.048072
855.4240,0.048062
857.2877,0.047957
859.1514,0.048072
861.0150,0.048539
862.8787,0.048553
864.7424,0.048522
866.6060,0.048979
868.4697,0.049391
870.3334,0.049640
872.1971,0.049881
874.0607,0.049855
875.9244,0.049814
877.7881,0.049956
879.6517,0.049765
881.5154,0.049339
883.3791,0.049197
885.2427,0.049092
887.1064,0.048787
888.9701,0.048668
890.8337,0.048874
892.6974,0.049007
894.5611,0.048915
896.4247,0.048869
898.2884,0.048794
900.1521,0.048547
902.0158,0.048547
903.8794,0.048654
905.7431,0.048679
907.6068,0.048852
909.4704,0.049292
911.3341,0.049976
913.1978,0.050566
915.0614,0.051080
916.9251,0.051802
918.7888,0.052409
920.6524,0.052785
922.5161,0.053129
924.3798,0.053395
926.2435,0.053565
928.1071,0.053766
929.9708,0.053889
931.8345,0.054006
933.6981,0.054227
935.5618,0.054392
937.4255,0.054622
939.2891,0.054987
941.1528,0.055381
943.0165,0.055817
944.8801,0.056196
946.7438,0.056504
948.6075,0.056766
950.4711,0.057119
952.3348,0.057544
954.1985,0.057995
956.0622,0.058596
957.9258,0.059500
959.7895,0.060576
961.6532,0.061798
963.5168,0.063247
965.3805,0.064435
967.2442,0.065020
969.1078,0.065352
970.9715,0.065538
972.8352,0.065556
974.6988,0.065483
976.5625,0.065588
978.4262,0.065925
980.2899,0.066417
982.1535,0.067073
984.0172,0.067855
985.8809,0.068586
987.7445,0.069430
989.6082,0.070621
991.4719,0.071799
993.3355,0.072866
995.1992,0.074068
997.0629,0.075275
998.9265,0.076520
1000.7902,0.077765
1002.6539,0.078967
1004.5175,0.080195
1006.3812,0.081553
1008.2449,0.083043
1010.1086,0.084621
1011.9722,0.086326
1013.8359,0.088055
1015.6996,0.089553
1017.5632,0.090891
1019.4269,0.092109
1021.2906,0.093010
1023.1542,0.093725
1025.0179,0.094395
1026.8816,0.094927
1028.7452,0.095384
1030.6089,0.095850
1032.4726,0.096257
1034.3362,0.096627
1036.1999,0.096867
1038.0636,0.096826
1039.9273,0.096695
1041.7909,0.096502
1043.6546,0.096225
1045.5183,0.096073
1047.3819,0.096143
1049.2456,0.096164
1051.1093,0.096101
1052.9729,0.095993
1054.8366,0.095783
1056.7003,0.095708
1058.5639,0.095690
1060.4276,0.095570
1062.2913,0.095502
1064.1550,0.095536
1066.0186,0.095519
1067.8823,0.095461
1069.7460,0.095337
1071.6096,0.095091
1073.4733,0.094663
1075.3370,0.093990
1077.2006,0.092999
1079.0643,0.091670
1080.9280,0.089952
1082.7916,0.087919
1084.6553,0.085802
1086.5190,0.083645
1088.3826,0.081645
1090.2463,0.079938
1092.1100,0.078401
1093.9737,0.077015
1095.8373,0.075689
1097.7010,0.074528
1099.5647,0.073646
1101.4283,0.072750
1103.2920,0.071991
1105.1557,0.071508
1107.0193,0.071135
1108.8830,0.070762
1110.7467,0.070396
1112.6103,0.070071
1114.4740,0.069728
1116.3377,0.069466
1118.2014,0.069158
1120.0650,0.068627
1121.9287,0.067877
1123.7924,0.067126
1125.6560,0.066360
1127.5197,0.065605
1129.3834,0.064995
1131.2470,0.064389
1133.1107,0.063826
1134.9744,0.063343
1136.8380,0.062925
1138.7017,0.062625
1140.5654,0.062364
1142.4290,0.062189
1144.2927,0.062119
1146.1564,0.062123
1148.0201,0.062227
1149.8837,0.062256
1151.7474,0.062202
1153.6111,0.062128
1155.4747,0.061900
1157.3384,0.061593
1159.2021,0.061234
1161.0657,0.060767
1162.9294,0.060091
1164.7931,0.059354
1166.6567,0.058590
1168.5204,0.057581
1170.3841,0.056354
1172.2477,0.055020
1174.1114,0.053581
1175.9751,0.052105
1177.8388,0.050659
1179.7024,0.049498
1181.5661,0.048766
1183.4298,0.048344
1185.2934,0.048203
1187.1571,0.048203
1189.0208,0.048403
1190.8844,0.048900
1192.7481,0.049517
1194.6118,0.050217
1196.4754,0.051069
1198.3391,0.051993
1200.2028,0.052943
1202.0665,0.053844
1203.9301,0.054783
1205.7938,0.055727
1207.6575,0.056541
1209.5211,0.057350
1211.3848,0.058174
1213.2485,0.058916
1215.1121,0.059654
1216.9758,0.060429
1218.8395,0.061308
1220.7031,0.062082
1222.5668,0.062701
1224.4305,0.063479
1226.2941,0.064184
1228.1578,0.064676
1230.0215,0.065131
1231.8852,0.065431
1233.7488,0.065555
1235.6125,0.065472
1237.4762,0.065236
1239.3398,0.065013
1241.2035,0.064741
1243.0672,0.064246
1244.9308,0.063665
1246.7945,0.063021
1248.6582,0.062282
1250.5218,0.061606
1252.3855,0.060960
1254.2492,0.060354
1256.1129,0.059614
1257.9765,0.058917
1259.8402,0.058444
1261.7039,0.058002
1263.5675,0.057459
1265.4312,0.057051
1267.2949,0.056749
1269.1585,0.056365
1271.0222,0.056042
1272.8859,0.055770
1274.7495,0.055549
1276.6132,0.055506
1278.4769,0.055468
1280.3405,0.055282
1282.2042,0.054986
1284.0679,0.054862
1285.9316,0.054801
1287.7952,0.054816
1289.6589,0.054814
1291.5226,0.054721
1293.3862,0.054736
1295.2499,0.054907
1297.1136,0.055092
1298.9772,0.055226
1300.8409,0.055389
1302.7046,0.055547
1304.5682,0.055747
1306.4319,0.055950
1308.2956,0.056196
1310.1592,0.056392
1312.0229,0.056533
1313.8866,0.056477
1315.7503,0.056240
1317.6139,0.056151
1319.4776,0.056144
1321.3413,0.055831
1323.2049,0.055478
1325.0686,0.055382
1326.9323,0.055378
1328.7959,0.055317
1330.6596,0.055248
1332.5233,0.055205
1334.3869,0.055176
1336.2506,0.055397
1338.1143,0.056038
1339.9780,0.056752
1341.8416,0.056799
1343.7053,0.056669
1345.5690,0.056784
1347.4326,0.056893
1349.2963,0.057063
1351.1600,0.057321
1353.0236,0.057692
1354.8873,0.058275
1356.7510,0.058753
1358.6146,0.059109
1360.4783,0.060128
1362.3420,0.062089
1364.2056,0.063512
1366.0693,0.064233
1367.9330,0.065352
1369.7967,0.066364
1371.6603,0.067161
1373.5240,0.068569
1375.3877,0.069818
1377.2513,0.070250
1379.1150,0.070597
1380.9787,0.070901
1382.8423,0.070977
1384.7060,0.070999
1386.5697,0.071983
1388.4333,0.072796
1390.2970,0.072248
1392.1607,0.072041
1394.0244,0.072787
1395.8880,0.073290
1397.7517,0.073625
1399.6154,0.074162
1401.4790,0.073490
1403.3427,0.072969
1405.2064,0.072884
1407.0700,0.072195
1408.9337,0.071375
1410.7974,0.070662
1412.6610,0.069650
1414.5247,0.068193
1416.3884,0.067096
1418.2520,0.067688
1420.1157,0.067900
1421.9794,0.066675
1423.8431,0.066293
1425.7067,0.065993
1427.5704,0.065848
1429.4341,0.066622
1431.2977,0.067148
1433.1614,0.066916
1435.0251,0.067926
1436.8887,0.070491
1438.7524,0.070714
1440.6161,0.070370
1442.4797,0.070428
1444.3434,0.070216
1446.2071,0.070457
1448.0707,0.071167
1449.9344,0.070853
1451.7981,0.069841
1453.6618,0.068714
1455.5254,0.069197
1457.3891,0.071154
1459.2528,0.069465
1461.1164,0.067039
1462.9801,0.066185
1464.8438,0.066632
1466.7074,0.065169
1468.5711,0.062487
1470.4348,0.060471
1472.2984,0.059886
1474.1621,0.059203
1476.0258,0.058420
1477.8895,0.057583
1479.7531,0.057185
1481.6168,0.057756
1483.4805,0.058088
1485.3441,0.058591
1487.2078,0.060433
1489.0715,0.063983
1490.9351,0.066761
1492.7988,0.067045
1494.6625,0.068469
1496.5261,0.072645
1498.3898,0.076191
1500.2535,0.077530
1502.1171,0.077539
1503.9808,0.078118
1505.8445,0.083280
1507.7082,0.090481
1509.5718,0.091072
1511.4355,0.092003
1513.2992,0.093076
1515.1628,0.094212
1517.0265,0.095373
1518.8902,0.095538
1520.7538,0.097240
1522.6175,0.098491
1524.4812,0.098434
1526.3448,0.099609
1528.2085,0.100032
1530.0722,0.099744
1531.9359,0.100260
1533.7995,0.101185
1535.6632,0.099274
1537.5269,0.098269
1539.3905,0.099480
1541.2542,0.099800
1543.1179,0.098740
1544.9815,0.097575
1546.8452,0.095531
1548.7089,0.093917
1550.5725,0.091936
1552.4362,0.089415
1554.2999,0.086739
1556.1635,0.084113
1558.0272,0.084128
1559.8909,0.083228
1561.7546,0.079639
1563.6182,0.077316
1565.4819,0.074959
1567.3456,0.073004
1569.2092,0.072175
1571.0729,0.070070
1572.9366,0.067480
1574.8002,0.066688
1576.6639,0.066647
1578.5276,0.064991
1580.3912,0.063651
1582.2549,0.062967
1584.1186,0.062625
1585.9822,0.062543
1587.8459,0.062586
1589.7096,0.063047
1591.5733,0.063777
1593.4369,0.064560
1595.3006,0.065964
1597.1643,0.067551
1599.0279,0.069090
1600.8916,0.071122
1602.7553,0.073514
1604.6189,0.075845
1606.4826,0.078482
1608.3463,0.081653
1610.2099,0.084731
1612.0736,0.086928
1613.9373,0.089245
1615.8010,0.093656
1617.6646,0.098308
1619.5283,0.099859
1621.3920,0.101932
1623.2556,0.105091
1625.1193,0.106906
1626.9830,0.108620
1628.8466,0.110203
1630.7103,0.109986
1632.5740,0.109311
1634.4376,0.110021
1636.3013,0.110685
1638.1650,0.109388
1640.0286,0.107724
1641.8923,0.105795
1643.7560,0.104002
1645.6197,0.102909
1647.4833,0.100792
1649.3470,0.097482
1651.2107,0.095549
1653.0743,0.094903
1654.9380,0.091435
1656.8017,0.088385
1658.6653,0.085574
1660.5290,0.082898
1662.3927,0.080214
1664.2563,0.076914
1666.1200,0.073886
1667.9837,0.071438
1669.8474,0.068683
1671.7110,0.065663
1673.5747,0.063171
1675.4384,0.060994
1677.3020,0.057904
1679.1657,0.055108
1681.0294,0.052324
1682.8930,0.050026
1684.7567,0.047603
1686.6204,0.044752
1688.4840,0.042172
1690.3477,0.039407
1692.2114,0.036356
1694.0750,0.033597
1695.9387,0.030480
1697.8024,0.027223
1699.6661,0.024951
1701.5297,0.022631
1703.3934,0.020591
1705.2571,0.019087
1707.1207,0.017628
1708.9844,0.016453
1710.8481,0.015478
1712.7117,0.014475
1714.5754,0.013557
1716.4391,0.013405
1718.3027,0.013486
1720.1664,0.012985
1722.0301,0.012321
1723.8937,0.012035
1725.7574,0.011887
1727.6211,0.011790
1729.4848,0.011692
1731.3484,0.011908
1733.2121,0.012606
1735.0758,0.013951
1736.9394,0.014372
1738.8031,0.014737
1740.6668,0.015256
1742.5304,0.015601
1744.3941,0.015582
1746.2578,0.014708
1748.1214,0.013288
1749.9851,0.011628
1751.8488,0.009806
1753.7125,0.008080
1755.5761,0.006391
1757.4398,0.004734
1759.3035,0.003327
1761.1671,0.002524
1763.0308,0.001922
1764.8945,0.001156
1766.7581,0.000640
1768.6218,0.000722
1770.4855,0.000629
1772.3491,0.000453
1774.2128,0.000354
1776.0765,0.000210
1777.9401,0.000176
1779.8038,0.000049
1781.6675,-0.000086
1783.5312,-0.000021
1785.3948,-0.000003
1787.2585,-0.000193
1789.1222,-0.000177
1790.9858,-0.000133
1792.8495,-0.000160
1794.7132,-0.000233
1796.5768,-0.000395
1798.4405,-0.000493
1800.3042,-0.000520
1802.1678,-0.000376
1804.0315,-0.000432
1805.8952,-0.000578
1807.7589,-0.000658
1809.6225,-0.000782
1811.4862,-0.000767
1813.3499,-0.000696
1815.2135,-0.001127
1817.0772,-0.001362
1818.9409,-0.000982
1820.8045,-0.000705
1822.6682,-0.000811
1824.5319,-0.000976
1826.3955,-0.000848
1828.2592,-0.000625
1830.1229,-0.000549
1831.9865,-0.000658
1833.8502,-0.000897
1835.7139,-0.000985
1837.5776,-0.000935
1839.4412,-0.000880
1841.3049,-0.000898
1843.1686,-0.000816
1845.0322,-0.000527
1846.8959,-0.000443
1848.7596,-0.000650
1850.6232,-0.000769
1852.4869,-0.000642
1854.3506,-0.000627
1856.2142,-0.000651
1858.0779,-0.000296
1859.9416,-0.000112
1861.8052,-0.000491
1863.6689,-0.000854
1865.5326,-0.000697
1867.3963,-0.000456
1869.2599,-0.000551
1871.1236,-0.000957
1872.9873,-0.001218
1874.8509,-0.000949
1876.7146,-0.000589
1878.5783,-0.000282
1880.4419,-0.000303
1882.3056,-0.000588
1884.1693,-0.000473
1886.0329,-0.000053
1887.8966,-0.000175
1889.7603,-0.000398
1891.6240,-0.000608
1893.4876,-0.000975
1895.3513,-0.000616
1897.2150,-0.000500
1899.0786,-0.000395
1900.9423,-0.000344
1902.8060,-0.000405
1904.6696,-0.000415
1906.5333,-0.000307
1908.3970,-0.000260
1910.2606,-0.000455
1912.1243,-0.000671
1913.9880,-0.000455
1915.8516,-0.000287
1917.7153,-0.000505
1919.5790,-0.001065
1921.4427,-0.001265
1923.3063,-0.000955
1925.1700,-0.001131
1927.0337,-0.001240
1928.8973,-0.000597
1930.7610,-0.000740
1932.6247,-0.001107
1934.4883,-0.000262
1936.3520,-0.000451
1938.2157,-0.001053
1940.0793,-0.001230
1941.9430,-0.001656
1943.8067,-0.000961
1945.6704,-0.000180
1947.5340,0.000051
1949.3977,0.000276
1951.2614,0.000246
1953.1250,-0.000344
1954.9887,-0.000363
1956.8524,-0.000279
1958.7160,-0.000975
1960.5797,-0.000704
1962.4434,-0.000578
1964.3070,-0.000422
1966.1707,0.000461
1968.0344,0.000300
1969.8980,0.000157
1971.7617,0.000706
1973.6254,-0.000272
1975.4891,-0.001160
1977.3527,0.001233
1979.2164,0.004024
1981.0801,0.003629
1982.9437,0.002212
1984.8074,0.002014
1986.6711,0.002029
1988.5347,0.001638
1990.3984,0.001026
1992.2621,0.000764
1994.1257,0.000216
1995.9894,0.001141
1997.8531,0.002460
1999.7167,0.001175
2001.5804,-0.000193
2003.4441,0.000475
2005.3078,0.001457
2007.1714,0.002228
2009.0351,0.001654
2010.8988,0.000732
2012.7624,0.001469
2014.6261,0.002770
2016.4898,0.002897
2018.3534,0.001442
2020.2171,0.000163
2022.0808,0.001036
2023.9444,0.003135
2025.8081,0.002715
2027.6718,0.000984
2029.5355,0.001765
2031.3991,0.003801
2033.2628,0.004966
2035.1265,0.004852
2036.9901,0.004415
2038.8538,0.004817
2040.7175,0.005446
2042.5811,0.005423
2044.4448,0.005719
2046.3085,0.005442
2048.1721,0.004999
2050.0358,0.006060
2051.8995,0.006230
2053.7631,0.005856
2055.6268,0.005716
2057.4905,0.005217
2059.3542,0.004665
2061.2178,0.004446
2063.0815,0.004342
2064.9452,0.004546
2066.8088,0.004729
2068.6725,0.004536
2070.5362,0.004248
2072.3998,0.004236
2074.2635,0.003921
2076.1272,0.003201
2077.9908,0.003193
2079.8545,0.003867
2081.7182,0.003819
2083.5819,0.003226
2085.4455,0.002993
2087.3092,0.002522
2089.1729,0.001917
2091.0365,0.001780
2092.9002,0.001712
2094.7639,0.001906
2096.6275,0.002158
2098.4912,0.002446
2100.3549,0.003083
2102.2185,0.002753
2104.0822,0.002313
2105.9459,0.003222
2107.8095,0.003303
2109.6732,0.002161
2111.5369,0.002292
2113.4006,0.003120
2115.2642,0.002818
2117.1279,0.001854
2118.9916,0.001361
2120.8552,0.001399
2122.7189,0.001331
2124.5826,0.000925
2126.4462,0.000619
2128.3099,0.000407
2130.1736,0.000014
2132.0372,-0.000602
2133.9009,-0.000113
2135.7646,0.001483
2137.6282,0.002053
2139.4919,0.002356
2141.3556,0.002694
2143.2193,0.001966
2145.0829,0.001486
2146.9466,0.002088
2148.8103,0.002054
2150.6739,0.001324
2152.5376,0.001305
2154.4013,0.001945
2156.2649,0.002420
2158.1286,0.003432
2159.9923,0.005224
2161.8559,0.006549
2163.7196,0.006276
2165.5833,0.005279
2167.4470,0.006045
2169.3106,0.006288
2171.1743,0.004949
2173.0380,0.004867
2174.9016,0.005329
2176.7653,0.004517
2178.6290,0.003826
2180.4926,0.003787
2182.3563,0.004203
2184.2200,0.005544
2186.0836,0.005954
2187.9473,0.005135
2189.8110,0.004170
2191.6746,0.004014
2193.5383,0.005396
2195.4020,0.005912
2197.2657,0.005442
2199.1293,0.005127
2200.9930,0.004133
2202.8567,0.003662
2204.7203,0.004250
2206.5840,0.004889
2208.4477,0.005323
2210.3113,0.004618
2212.1750,0.003783
2214.0387,0.004074
2215.9023,0.004439
2217.7660,0.004804
2219.6297,0.005185
2221.4934,0.005329
2223.3570,0.005214
2225.2207,0.004913
2227.0844,0.004709
2228.9480,0.004308
2230.8117,0.004077
2232.6754,0.004183
2234.5390,0.004057
2236.4027,0.003779
2238.2664,0.003853
2240.1300,0.004258
2241.9937,0.004227
2243.8574,0.004060
2245.7210,0.004028
2247.5847,0.003549
2249.4484,0.003209
2251.3121,0.003417
2253.1757,0.003542
2255.0394,0.003795
2256.9031,0.004236
2258.7667,0.004128
2260.6304,0.003965
2262.4941,0.004170
2264.3577,0.004212
2266.2214,0.004211
2268.0851,0.004304
2269.9487,0.004760
2271.8124,0.004996
2273.6761,0.004466
2275.5397,0.004247
2277.4034,0.004354
2279.2671,0.004643
2281.1308,0.005302
2282.9944,0.005562
2284.8581,0.005159
2286.7218,0.004691
2288.5854,0.004644
2290.4491,0.004688
2292.3128,0.004660
2294.1764,0.004634
2296.0401,0.004302
2297.9038,0.004034
2299.7674,0.004093
2301.6311,0.003960
2303.4948,0.003767
2305.3585,0.003994
2307.2221,0.004073
2309.0858,0.003762
2310.9495,0.003758
2312.8131,0.003881
2314.6768,0.003903
2316.5405,0.004064
2318.4041,0.004383
2320.2678,0.004653
2322.1315,0.004538
2323.9951,0.004263
2325.8588,0.003842
2327.7225,0.003412
2329.5861,0.003132
2331.4498,0.002837
2333.3135,0.003005
2335.1772,0.003581
2337.0408,0.003763
2338.9045,0.003832
2340.7682,0.004310
2342.6318,0.004376
2344.4955,0.003616
2346.3592,0.003107
2348.2228,0.002907
2350.0865,0.002347
2351.9502,0.002055
2353.8138,0.002495
2355.6775,0.002727
2357.5412,0.002964
2359.4049,0.003783
2361.2685,0.004305
2363.1322,0.004062
2364.9959,0.003858
2366.8595,0.003917
2368.7232,0.004168
2370.5869,0.004462
2372.4505,0.004752
2374.3142,0.004475
2376.1779,0.003936
2378.0415,0.003868
2379.9052,0.004004
2381.7689,0.003891
2383.6325,0.003535
2385.4962,0.003450
2387.3599,0.003626
2389.2236,0.003507
2391.0872,0.003559
2392.9509,0.003775
2394.8146,0.003878
2396.6782,0.003838
2398.5419,0.003724
2400.4056,0.003663
2402.2692,0.003786
2404.1329,0.003924
2405.9966,0.004144
2407.8602,0.004479
2409.7239,0.004719
2411.5876,0.004919
2413.4512,0.004823
2415.3149,0.004489
2417.1786,0.004404
2419.0423,0.004466
2420.9059,0.004526
2422.7696,0.004878
2424.6333,0.005068
2426.4969,0.004905
2428.3606,0.004826
2430.2243,0.004837
2432.0879,0.004971
2433.9516,0.005252
2435.8153,0.005491
2437.6789,0.005563
2439.5426,0.005733
2441.4063,0.005941
2443.2700,0.005787
2445.1336,0.005689
2446.9973,0.006395
2448.8610,0.006879
2450.7246,0.006426
2452.5883,0.005999
2454.4520,0.005691
2456.3156,0.005687
2458.1793,0.006078
2460.0430,0.006140
2461.9066,0.005782
2463.7703,0.005708
2465.6340,0.006304
2467.4976,0.006570
2469.3613,0.006343
2471.2250,0.006038
2473.0887,0.006044
2474.9523,0.006335
2476.8160,0.006429
2478.6797,0.006217
2480.5433,0.006167
2482.4070,0.006553
2484.2707,0.006734
2486.1343,0.006648
2487.9980,0.007017
2489.8617,0.007430
2491.7253,0.007311
2493.5890,0.006815
2495.4527,0.006780
2497.3164,0.007258
2499.1800,0.007530
2501.0437,0.007447
2502.9074,0.007482
2504.7710,0.007406
2506.6347,0.007366
2508.4984,0.007467
2510.3620,0.007591
2512.2257,0.007732
2514.0894,0.007658
2515.9530,0.007399
2517.8167,0.007297
2519.6804,0.007305
2521.5440,0.007635
2523.4077,0.008122
2525.2714,0.008138
2527.1351,0.007900
2528.9987,0.007918
2530.8624,0.008031
2532.7261,0.008183
2534.5897,0.008388
2536.4534,0.008576
2538.3171,0.008704
2540.1807,0.008459
2542.0444,0.008271
2543.9081,0.008446
2545.7717,0.008493
2547.6354,0.008450
2549.4991,0.008562
2551.3627,0.008873
2553.2264,0.009082
2555.0901,0.009035
2556.9538,0.008894
2558.8174,0.008966
2560.6811,0.009203
2562.5448,0.009288
2564.4084,0.009136
2566.2721,0.009108
2568.1358,0.009430
2569.9994,0.009760
2571.8631,0.009571
2573.7268,0.009458
2575.5904,0.009702
2577.4541,0.009936
2579.3178,0.010107
2581.1815,0.010216
2583.0451,0.010119
2584.9088,0.010032
2586.7725,0.010404
2588.6361,0.010969
2590.4998,0.010914
2592.3635,0.010624
2594.2271,0.010619
2596.0908,0.010738
2597.9545,0.010894
2599.8181,0.010932
2601.6818,0.011306
2603.5455,0.011497
2605.4091,0.011511
2607.2728,0.011747
2609.1365,0.011858
2611.0002,0.011853
2612.8638,0.011962
2614.7275,0.012191
2616.5912,0.012346
