Wavenumber,Intensity
650.4205,0.084083
652.2841,0.083979
654.1478,0.084538
656.0115,0.083237
657.8751,0.080748
659.7388,0.080149
661.6025,0.079878
663.4661,0.078001
665.3298,0.076909
667.1935,0.079564
669.0571,0.081756
670.9208,0.077942
672.7845,0.076019
674.6481,0.075721
676.5118,0.075156
678.3755,0.074355
680.2392,0.074213
682.1028,0.074231
683.9665,0.073229
685.8302,0.071625
687.6938,0.071848
689.5575,0.072506
691.4212,0.071524
693.2848,0.070161
695.1485,0.070751
697.0122,0.071932
698.8758,0.071503
700.7395,0.070403
702.6032,0.070448
704.4669,0.070243
706.3305,0.068926
708.1942,0.068019
710.0579,0.066835
711.9215,0.065039
713.7852,0.064565
715.6489,0.064715
717.5125,0.064316
719.3762,0.063527
721.2399,0.062827
723.1035,0.062466
724.9672,0.061943
726.8309,0.061396
728.6945,0.060786
730.5582,0.059988
732.4219,0.059629
734.2856,0.059612
736.1492,0.059288
738.0129,0.058908
739.8766,0.058192
741.7402,0.057826
743.6039,0.058218
745.4676,0.057975
747.3312,0.057444
749.1949,0.057136
751.0586,0.056344
752.9222,0.055500
754.7859,0.055425
756.6496,0.055238
758.5132,0.054662
760.3769,0.054307
762.2406,0.053815
764.1043,0.053570
765.9679,0.053660
767.8316,0.053215
769.6953,0.052444
771.5589,0.052142
773.4226,0.052228
775.2863,0.051768
777.1499,0.051172
779.0136,0.050914
780.8773,0.050337
782.7409,0.049550
784.6046,0.049078
786.4683,0.048970
788.3320,0.048471
790.1956,0.047707
792.0593,0.047339
793.9230,0.047042
795.7866,0.046847
797.6503,0.046653
799.5140,0.046477
801.3776,0.046339
803.2413,0.045945
805.1050,0.045870
806.9686,0.046088
808.8323,0.045929
810.6960,0.045212
812.5596,0.044729
814.4233,0.044885
816.2870,0.044988
818.1507,0.044641
820.0143,0.044132
821.8780,0.043664
823.7417,0.043236
825.6053,0.042955
827.4690,0.042698
829.3327,0.042263
831.1963,0.041844
833.0600,0.041510
834.9237,0.041171
836.7873,0.040605
838.6510,0.040227
840.5147,0.040076
842.3784,0.039636
844.2420,0.039245
846.1057,0.039270
847.9694,0.039253
849.8330,0.039198
851.6967,0.039125
853.5604,0.038879
855.4240,0.038692
857.2877,0.038568
859.1514,0.038443
861.0150,0.038368
862.8787,0.038221
864.7424,0.038082
866.6060,0.038161
868.4697,0.038222
870.3334,0.038071
872.1971,0.038015
874.0607,0.038140
875.9244,0.037985
877.7881,0.037542
879.6517,0.037280
881.5154,0.037072
883.3791,0.036736
885.2427,0.036387
887.1064,0.036019
888.9701,0.035796
890.8337,0.035830
892.6974,0.035832
894.5611,0.035806
896.4247,0.035600
898.2884,0.035140
900.1521,0.034911
902.0158,0.034819
903.8794,0.034639
905.7431,0.034577
907.6068,0.034679
909.4704,0.034825
911.3341,0.035048
913.1978,0.035324
915.0614,0.035520
916.9251,0.035798
918.7888,0.036179
920.6524,0.036447
922.5161,0.036647
924.3798,0.036838
926.2435,0.036904
928.1071,0.036900
929.9708,0.036885
931.8345,0.036835
933.6981,0.036894
935.5618,0.037053
937.4255,0.037096
939.2891,0.037198
941.1528,0.037500
943.0165,0.037735
944.8801,0.037972
946.7438,0.038254
948.6075,0.038349
950.4711,0.038377
952.3348,0.038381
954.1985,0.038489
956.0622,0.038829
957.9258,0.039457
959.7895,0.040289
961.6532,0.041255
963.5168,0.042403
965.3805,0.043487
967.2442,0.044320
969.1078,0.044895
970.9715,0.045220
972.8352,0.045454
974.6988,0.045646
976.5625,0.045922
978.4262,0.046399
980.2899,0.046985
982.1535,0.047499
984.0172,0.047977
985.8809,0.048461
987.7445,0.048929
989.6082,0.049351
991.4719,0.049696
993.3355,0.050100
995.1992,0.050638
997.0629,0.051103
998.9265,0.051581
1000.7902,0.052185
1002.6539,0.052820
1004.5175,0.053532
1006.3812,0.054388
1008.2449,0.055476
1010.1086,0.056845
1011.9722,0.058424
1013.8359,0.060230
1015.6996,0.062155
1017.5632,0.064039
1019.4269,0.065687
1021.2906,0.067038
1023.1542,0.068182
1025.0179,0.069169
1026.8816,0.070220
1028.7452,0.071428
1030.6089,0.072518
1032.4726,0.073471
1034.3362,0.074333
1036.1999,0.075061
1038.0636,0.075729
1039.9273,0.076282
1041.7909,0.076700
1043.6546,0.076985
1045.5183,0.077282
1047.3819,0.077588
1049.2456,0.077864
1051.1093,0.078253
1052.9729,0.078743
1054.8366,0.079240
1056.7003,0.079778
1058.5639,0.080382
1060.4276,0.080937
1062.2913,0.081396
1064.1550,0.081916
1066.0186,0.082532
1067.8823,0.083186
1069.7460,0.083781
1071.6096,0.084094
1073.4733,0.084227
1075.3370,0.084047
1077.2006,0.083566
1079.0643,0.082875
1080.9280,0.081629
1082.7916,0.079877
1084.6553,0.077993
1086.5190,0.076093
1088.3826,0.074228
1090.2463,0.072505
1092.1100,0.070937
1093.9737,0.069629
1095.8373,0.068497
1097.7010,0.067293
1099.5647,0.066213
1101.4283,0.065351
1103.2920,0.064573
1105.1557,0.063957
1107.0193,0.063449
1108.8830,0.062948
1110.7467,0.062556
1112.6103,0.062324
1114.4740,0.061972
1116.3377,0.061516
1118.2014,0.060983
1120.0650,0.060281
1121.9287,0.059522
1123.7924,0.058695
1125.6560,0.057880
1127.5197,0.057092
1129.3834,0.056187
1131.2470,0.055144
1133.1107,0.054031
1134.9744,0.053028
1136.8380,0.052153
1138.7017,0.051280
1140.5654,0.050583
1142.4290,0.050144
1144.2927,0.049882
1146.1564,0.049710
1148.0201,0.049765
1149.8837,0.049858
1151.7474,0.049909
1153.6111,0.049879
1155.4747,0.049760
1157.3384,0.049602
1159.2021,0.049367
1161.0657,0.049040
1162.9294,0.048660
1164.7931,0.048175
1166.6567,0.047494
1168.5204,0.046699
1170.3841,0.045757
1172.2477,0.044545
1174.1114,0.043093
1175.9751,0.041550
1177.8388,0.040090
1179.7024,0.038943
1181.5661,0.038117
1183.4298,0.037572
1185.2934,0.037378
1187.1571,0.037305
1189.0208,0.037335
1190.8844,0.037631
1192.7481,0.038015
1194.6118,0.038376
1196.4754,0.038839
1198.3391,0.039517
1200.2028,0.040340
1202.0665,0.041159
1203.9301,0.041885
1205.7938,0.042618
1207.6575,0.043376
1209.5211,0.044107
1211.3848,0.044887
1213.2485,0.045572
1215.1121,0.046258
1216.9758,0.047072
1218.8395,0.047957
1220.7031,0.048941
1222.5668,0.049917
1224.4305,0.050788
1226.2941,0.051596
1228.1578,0.052423
1230.0215,0.053165
1231.8852,0.053750
1233.7488,0.054178
1235.6125,0.054480
1237.4762,0.054689
1239.3398,0.054753
1241.2035,0.054758
1243.0672,0.054637
1244.9308,0.054226
1246.7945,0.053690
1248.6582,0.053193
1250.5218,0.052759
1252.3855,0.052345
1254.2492,0.051756
1256.1129,0.051156
1257.9765,0.050560
1259.8402,0.050084
1261.7039,0.049775
1263.5675,0.049456
1265.4312,0.049107
1267.2949,0.048810
1269.1585,0.048590
1271.0222,0.048482
1272.8859,0.048347
1274.7495,0.048190
1276.6132,0.048085
1278.4769,0.048000
1280.3405,0.048011
1282.2042,0.048008
1284.0679,0.047860
1285.9316,0.047816
1287.7952,0.047957
1289.6589,0.048143
1291.5226,0.048343
1293.3862,0.048414
1295.2499,0.048562
1297.1136,0.048777
1298.9772,0.048891
1300.8409,0.049028
1302.7046,0.049188
1304.5682,0.049296
1306.4319,0.049377
1308.2956,0.049520
1310.1592,0.049735
1312.0229,0.049908
1313.8866,0.049850
1315.7503,0.049638
1317.6139,0.049468
1319.4776,0.049180
1321.3413,0.048747
1323.2049,0.048213
1325.0686,0.047664
1326.9323,0.047296
1328.7959,0.047128
1330.6596,0.047048
1332.5233,0.046940
1334.3869,0.046880
1336.2506,0.047099
1338.1143,0.047653
1339.9780,0.048012
1341.8416,0.047846
1343.7053,0.047720
1345.5690,0.047856
1347.4326,0.047845
1349.2963,0.047753
1351.1600,0.047651
1353.0236,0.047510
1354.8873,0.047618
1356.7510,0.047691
1358.6146,0.047832
1360.4783,0.048673
1362.3420,0.050117
1364.2056,0.051007
1366.0693,0.051702
1367.9330,0.052871
1369.7967,0.053752
1371.6603,0.054615
1373.5240,0.056151
1375.3877,0.057483
1377.2513,0.058126
1379.1150,0.058869
1380.9787,0.059490
1382.8423,0.059997
1384.7060,0.060837
1386.5697,0.062136
1388.4333,0.062577
1390.2970,0.062229
1392.1607,0.062556
1394.0244,0.063408
1395.8880,0.063920
1397.7517,0.064183
1399.6154,0.064270
1401.4790,0.063605
1403.3427,0.063094
1405.2064,0.062650
1407.0700,0.061656
1408.9337,0.060498
1410.7974,0.059541
1412.6610,0.058369
1414.5247,0.057038
1416.3884,0.056521
1418.2520,0.056770
1420.1157,0.055790
1421.9794,0.054336
1423.8431,0.053629
1425.7067,0.052894
1427.5704,0.052536
1429.4341,0.052769
1431.2977,0.052984
1433.1614,0.053207
1435.0251,0.054831
1436.8887,0.056910
1438.7524,0.056709
1440.6161,0.056401
1442.4797,0.056785
1444.3434,0.057116
1446.2071,0.057631
1448.0707,0.058141
1449.9344,0.057744
1451.7981,0.057004
1453.6618,0.056712
1455.5254,0.057659
1457.3891,0.058532
1459.2528,0.055985
1461.1164,0.053883
1462.9801,0.053357
1464.8438,0.053395
1466.7074,0.052075
1468.5711,0.050388
1470.4348,0.049495
1472.2984,0.049157
1474.1621,0.047909
1476.0258,0.046715
1477.8895,0.045675
1479.7531,0.045328
1481.6168,0.045654
1483.4805,0.046056
1485.3441,0.047208
1487.2078,0.049498
1489.0715,0.052759
1490.9351,0.055069
1492.7988,0.055808
1494.6625,0.058044
1496.5261,0.062501
1498.3898,0.065769
1500.2535,0.067124
1502.1171,0.068014
1503.9808,0.070612
1505.8445,0.077976
1507.7082,0.084962
1509.5718,0.085129
1511.4355,0.086467
1513.2992,0.088526
1515.1628,0.090862
1517.0265,0.092999
1518.8902,0.094216
1520.7538,0.096631
1522.6175,0.098306
1524.4812,0.098961
1526.3448,0.100858
1528.2085,0.101560
1530.0722,0.102030
1531.9359,0.103787
1533.7995,0.105199
1535.6632,0.104122
1537.5269,0.104689
1539.3905,0.107729
1541.2542,0.108439
1543.1179,0.106690
1544.9815,0.104924
1546.8452,0.102606
1548.7089,0.100860
1550.5725,0.098363
1552.4362,0.095481
1554.2999,0.092250
1556.1635,0.090117
1558.0272,0.090657
1559.8909,0.087531
1561.7546,0.082725
1563.6182,0.080191
1565.4819,0.078075
1567.3456,0.076631
1569.2092,0.075371
1571.0729,0.072712
1572.9366,0.070814
1574.8002,0.070645
1576.6639,0.069963
1578.5276,0.067788
1580.3912,0.066406
1582.2549,0.065629
1584.1186,0.065089
1585.9822,0.064721
1587.8459,0.064611
1589.7096,0.064725
1591.5733,0.065032
1593.4369,0.065767
1595.3006,0.066545
1597.1643,0.067238
1599.0279,0.068297
1600.8916,0.069899
1602.7553,0.071814
1604.6189,0.073733
1606.4826,0.076114
1608.3463,0.079206
1610.2099,0.082154
1612.0736,0.084561
1613.9373,0.087713
1615.8010,0.092594
1617.6646,0.096902
1619.5283,0.098833
1621.3920,0.101954
1623.2556,0.106290
1625.1193,0.109229
1626.9830,0.111799
1628.8466,0.113994
1630.7103,0.114721
1632.5740,0.115904
1634.4376,0.118605
1636.3013,0.119727
1638.1650,0.118187
1640.0286,0.116856
1641.8923,0.115805
1643.7560,0.115073
1645.6197,0.114579
1647.4833,0.111548
1649.3470,0.108449
1651.2107,0.107923
1653.0743,0.105471
1654.9380,0.098695
1656.8017,0.094706
1658.6653,0.091205
1660.5290,0.087889
1662.3927,0.084142
1664.2563,0.079949
1666.1200,0.076750
1667.9837,0.074207
1669.8474,0.070647
1671.7110,0.066869
1673.5747,0.064081
1675.4384,0.060992
1677.3020,0.057411
1679.1657,0.054492
1681.0294,0.051762
1682.8930,0.049375
1684.7567,0.045061
1686.6204,0.041546
1688.4840,0.038729
1690.3477,0.035399
1692.2114,0.032073
1694.0750,0.029083
1695.9387,0.025298
1697.8024,0.022350
1699.6661,0.019553
1701.5297,0.016441
1703.3934,0.014809
1705.2571,0.013183
1707.1207,0.011606
1708.9844,0.010477
1710.8481,0.009434
1712.7117,0.008705
1714.5754,0.008066
1716.4391,0.007550
1718.3027,0.006883
1720.1664,0.006328
1722.0301,0.005811
1723.8937,0.005461
1725.7574,0.005165
1727.6211,0.005032
1729.4848,0.004917
1731.3484,0.005030
1733.2121,0.004974
1735.0758,0.005071
1736.9394,0.005133
1738.8031,0.004860
1740.6668,0.004711
1742.5304,0.004956
1744.3941,0.004802
1746.2578,0.004434
1748.1214,0.004102
1749.9851,0.003262
1751.8488,0.002245
1753.7125,0.001798
1755.5761,0.001185
1757.4398,0.000698
1759.3035,0.000427
1761.1671,-0.000001
1763.0308,-0.000465
1764.8945,-0.000456
1766.7581,-0.000385
1768.6218,-0.000338
1770.4855,-0.000625
1772.3491,-0.000826
1774.2128,-0.000726
1776.0765,-0.000875
1777.9401,-0.001023
1779.8038,-0.001161
1781.6675,-0.001080
1783.5312,-0.000965
1785.3948,-0.001179
1787.2585,-0.001272
1789.1222,-0.001172
1790.9858,-0.001087
1792.8495,-0.001004
1794.7132,-0.001099
1796.5768,-0.001359
1798.4405,-0.001433
1800.3042,-0.001396
1802.1678,-0.001305
1804.0315,-0.001454
1805.8952,-0.001497
1807.7589,-0.001594
1809.6225,-0.001610
1811.4862,-0.001702
1813.3499,-0.001979
1815.2135,-0.001921
1817.0772,-0.001749
1818.9409,-0.001708
1820.8045,-0.001714
1822.6682,-0.001464
1824.5319,-0.001510
1826.3955,-0.001619
1828.2592,-0.001756
1830.1229,-0.001805
1831.9865,-0.001620
1833.8502,-0.001643
1835.7139,-0.001860
1837.5776,-0.001937
1839.4412,-0.001799
1841.3049,-0.001615
1843.1686,-0.001373
1845.0322,-0.001428
1846.8959,-0.001551
1848.7596,-0.001524
1850.6232,-0.001470
1852.4869,-0.001473
1854.3506,-0.001338
1856.2142,-0.001344
1858.0779,-0.001575
1859.9416,-0.001658
1861.8052,-0.001665
1863.6689,-0.001922
1865.5326,-0.001790
1867.3963,-0.001777
1869.2599,-0.001843
1871.1236,-0.001653
1872.9873,-0.001552
1874.8509,-0.001708
1876.7146,-0.001487
1878.5783,-0.001177
1880.4419,-0.001279
1882.3056,-0.001003
1884.1693,-0.000720
1886.0329,-0.001167
1887.8966,-0.001555
1889.7603,-0.001249
1891.6240,-0.001185
1893.4876,-0.001558
1895.3513,-0.001428
1897.2150,-0.000910
1899.0786,-0.000856
1900.9423,-0.001336
1902.8060,-0.001362
1904.6696,-0.000834
1906.5333,-0.000989
1908.3970,-0.000932
1910.2606,-0.000764
1912.1243,-0.001248
1913.9880,-0.001200
1915.8516,-0.000727
1917.7153,-0.000654
1919.5790,-0.000910
1921.4427,-0.001255
1923.3063,-0.001457
1925.1700,-0.001346
1927.0337,-0.001473
1928.8973,-0.001650
1930.7610,-0.001626
1932.6247,-0.001560
1934.4883,-0.001426
1936.3520,-0.001012
1938.2157,-0.000471
1940.0793,-0.000460
1941.9430,-0.000932
1943.8067,-0.001017
1945.6704,-0.000782
1947.5340,-0.000498
1949.3977,-0.000626
1951.2614,-0.000395
1953.1250,0.000293
1954.9887,0.000047
1956.8524,-0.000426
1958.7160,-0.000317
1960.5797,0.000028
1962.4434,-0.000112
1964.3070,0.000572
1966.1707,0.001678
1968.0344,0.001801
1969.8980,0.001463
1971.7617,0.000751
1973.6254,0.000973
1975.4891,0.001947
1977.3527,0.002585
1979.2164,0.003139
1981.0801,0.002186
1982.9437,0.001616
1984.8074,0.001524
1986.6711,0.000828
1988.5347,0.001089
1990.3984,0.001382
1992.2621,0.001383
1994.1257,0.001559
1995.9894,0.001498
1997.8531,0.001368
1999.7167,0.001361
2001.5804,0.001176
2003.4441,0.001230
2005.3078,0.001063
2007.1714,0.001257
2009.0351,0.001590
2010.8988,0.001708
2012.7624,0.002584
2014.6261,0.002494
2016.4898,0.001571
2018.3534,0.001295
2020.2171,0.001821
2022.0808,0.002504
2023.9444,0.001305
2025.8081,0.000591
2027.6718,0.001460
2029.5355,0.002940
2031.3991,0.004055
2033.2628,0.004129
2035.1265,0.004087
2036.9901,0.004359
2038.8538,0.002814
2040.7175,0.001695
2042.5811,0.001584
2044.4448,0.001809
2046.3085,0.002705
2048.1721,0.003947
2050.0358,0.004647
2051.8995,0.004286
2053.7631,0.003518
2055.6268,0.002390
2057.4905,0.001400
2059.3542,0.001835
2061.2178,0.002443
2063.0815,0.002677
2064.9452,0.002643
2066.8088,0.002486
2068.6725,0.002649
2070.5362,0.002988
2072.3998,0.002659
2074.2635,0.002215
2076.1272,0.002918
2077.9908,0.002930
2079.8545,0.001934
2081.7182,0.002099
2083.5819,0.002377
2085.4455,0.002401
2087.3092,0.002239
2089.1729,0.001610
2091.0365,0.001155
2092.9002,0.001628
2094.7639,0.002141
2096.6275,0.002203
2098.4912,0.002505
2100.3549,0.002578
2102.2185,0.002473
2104.0822,0.002783
2105.9459,0.003049
2107.8095,0.003077
2109.6732,0.002741
2111.5369,0.002651
2113.4006,0.002975
2115.2642,0.002942
2117.1279,0.002251
2118.9916,0.001645
2120.8552,0.001606
2122.7189,0.001608
2124.5826,0.001685
2126.4462,0.002037
2128.3099,0.001944
2130.1736,0.001233
2132.0372,0.001353
2133.9009,0.001977
2135.7646,0.001813
2137.6282,0.001674
2139.4919,0.002159
2141.3556,0.002117
2143.2193,0.001536
2145.0829,0.002176
2146.9466,0.002815
2148.8103,0.002868
2150.6739,0.002503
2152.5376,0.001747
2154.4013,0.001620
2156.2649,0.002144
2158.1286,0.003171
2159.9923,0.005031
2161.8559,0.006669
2163.7196,0.006896
2165.5833,0.007145
2167.4470,0.007416
2169.3106,0.005769
2171.1743,0.004374
2173.0380,0.005056
2174.9016,0.005304
2176.7653,0.004636
2178.6290,0.003886
2180.4926,0.003373
2182.3563,0.004532
2184.2200,0.005860
2186.0836,0.005081
2187.9473,0.004713
2189.8110,0.004544
2191.6746,0.004250
2193.5383,0.005346
2195.4020,0.005639
2197.2657,0.004966
2199.1293,0.004573
2200.9930,0.003953
2202.8567,0.002935
2204.7203,0.003108
2206.5840,0.004410
2208.4477,0.005202
2210.3113,0.004897
2212.1750,0.004331
2214.0387,0.004035
2215.9023,0.003920
2217.7660,0.003920
2219.6297,0.004067
2221.4934,0.004635
2223.3570,0.004750
2225.2207,0.004177
2227.0844,0.003705
2228.9480,0.003701
2230.8117,0.003457
2232.6754,0.003066
2234.5390,0.003612
2236.4027,0.004199
2238.2664,0.004203
2240.1300,0.004092
2241.9937,0.003902
2243.8574,0.003691
2245.7210,0.003385
2247.5847,0.003709
2249.4484,0.004223
2251.3121,0.003935
2253.1757,0.003616
2255.0394,0.003513
2256.9031,0.003820
2258.7667,0.003979
2260.6304,0.003309
2262.4941,0.003094
2264.3577,0.003608
2266.2214,0.003564
2268.0851,0.003255
2269.9487,0.003472
2271.8124,0.003350
2273.6761,0.003166
2275.5397,0.003400
2277.4034,0.003452
2279.2671,0.003551
2281.1308,0.003909
2282.9944,0.003996
2284.8581,0.003787
2286.7218,0.003633
2288.5854,0.003687
2290.4491,0.003754
2292.3128,0.003530
2294.1764,0.003254
2296.0401,0.003040
2297.9038,0.002840
2299.7674,0.002666
2301.6311,0.002724
2303.4948,0.002802
2305.3585,0.002622
2307.2221,0.002682
2309.0858,0.002820
2310.9495,0.002606
2312.8131,0.002671
2314.6768,0.002964
2316.5405,0.003008
2318.4041,0.003022
2320.2678,0.003359
2322.1315,0.003541
2323.9951,0.003200
2325.8588,0.002776
2327.7225,0.002168
2329.5861,0.001837
2331.4498,0.002071
2333.3135,0.001973
2335.1772,0.001982
2337.0408,0.002440
2338.9045,0.002210
2340.7682,0.001845
2342.6318,0.002590
2344.4955,0.003004
2346.3592,0.002432
2348.2228,0.001821
2350.0865,0.001526
2351.9502,0.001659
2353.8138,0.001731
2355.6775,0.001817
2357.5412,0.002596
2359.4049,0.003279
2361.2685,0.003667
2363.1322,0.003545
2364.9959,0.002594
2366.8595,0.002258
2368.7232,0.002804
2370.5869,0.002853
2372.4505,0.002688
2374.3142,0.002618
2376.1779,0.002533
2378.0415,0.002515
2379.9052,0.002345
2381.7689,0.002095
2383.6325,0.001926
2385.4962,0.001870
2387.3599,0.002066
2389.2236,0.002266
2391.0872,0.002353
2392.9509,0.002218
2394.8146,0.002167
2396.6782,0.002164
2398.5419,0.001917
2400.4056,0.001979
2402.2692,0.002390
2404.1329,0.002531
2405.9966,0.002564
2407.8602,0.002691
2409.7239,0.002837
2411.5876,0.002687
2413.4512,0.002607
2415.3149,0.002921
2417.1786,0.003117
2419.0423,0.002956
2420.9059,0.002962
2422.7696,0.002985
2424.6333,0.003079
2426.4969,0.003171
2428.3606,0.003173
2430.2243,0.003383
2432.0879,0.003462
2433.9516,0.003283
2435.8153,0.003194
2437.6789,0.003318
2439.5426,0.003434
2441.4063,0.003406
2443.2700,0.003459
2445.1336,0.003477
2446.9973,0.003371
2448.8610,0.003566
2450.7246,0.003736
2452.5883,0.003654
2454.4520,0.003535
2456.3156,0.003658
2458.1793,0.003803
2460.0430,0.003662
2461.9066,0.003566
2463.7703,0.003778
2465.6340,0.003916
2467.4976,0.003837
2469.3613,0.003700
2471.2250,0.003719
2473.0887,0.003751
2474.9523,0.003752
2476.8160,0.003684
2478.6797,0.003672
2480.5433,0.003881
2482.4070,0.004113
2484.2707,0.004155
2486.1343,0.004152
2487.9980,0.004021
2489.8617,0.004396
2491.7253,0.004680
2493.5890,0.004395
2495.4527,0.004263
2497.3164,0.004421
2499.1800,0.004538
2501.0437,0.004515
2502.9074,0.004771
2504.7710,0.005094
2506.6347,0.004671
2508.4984,0.004405
2510.3620,0.004606
2512.2257,0.004494
2514.0894,0.004413
2515.9530,0.004532
2517.8167,0.004809
2519.6804,0.004958
2521.5440,0.004824
2523.4077,0.004656
2525.2714,0.004700
2527.1351,0.004676
2528.9987,0.004693
2530.8624,0.004669
2532.7261,0.004693
2534.5897,0.004721
2536.4534,0.004722
2538.3171,0.004650
2540.1807,0.004687
2542.0444,0.005041
2543.9081,0.005283
2545.7717,0.005246
2547.6354,0.005072
2549.4991,0.004785
2551.3627,0.004908
2553.2264,0.005117
2555.0901,0.004955
2556.9538,0.004886
2558.8174,0.005048
2560.6811,0.005350
2562.5448,0.005328
2564.4084,0.005328
2566.2721,0.005404
2568.1358,0.005509
2569.9994,0.005580
2571.8631,0.005686
2573.7268,0.005705
2575.5904,0.005682
2577.4541,0.005969
2579.3178,0.006186
2581.1815,0.006154
2583.0451,0.006150
2584.9088,0.006068
2586.7725,0.006053
2588.6361,0.005961
2590.4998,0.006161
2592.3635,0.006324
2594.2271,0.006382
2596.0908,0.006672
2597.9545,0.006722
2599.8181,0.006558
2601.6818,0.006585
2603.5455,0.006649
2605.4091,0.006795
2607.2728,0.006897
2609.1365,0.006990
2611.0002,0.006935
2612.8638,0.007022
2614.7275,0.007256
