Wavenumber,Intensity
650.4205,0.100903
652.2841,0.101185
654.1478,0.101621
656.0115,0.101124
657.8751,0.101259
659.7388,0.101224
661.6025,0.098629
663.4661,0.097626
665.3298,0.099275
667.1935,0.099194
669.0571,0.098399
670.9208,0.098986
672.7845,0.098566
674.6481,0.097168
676.5118,0.096568
678.3755,0.093997
680.2392,0.092846
682.1028,0.093433
683.9665,0.093255
685.8302,0.091986
687.6938,0.091423
689.5575,0.091210
691.4212,0.090773
693.2848,0.090231
695.1485,0.090332
697.0122,0.088962
698.8758,0.088741
700.7395,0.088701
702.6032,0.087864
704.4669,0.086272
706.3305,0.084964
708.1942,0.084059
710.0579,0.083726
711.9215,0.082958
713.7852,0.081344
715.6489,0.080363
717.5125,0.080407
719.3762,0.079493
721.2399,0.078363
723.1035,0.077317
724.9672,0.076457
726.8309,0.075223
728.6945,0.074827
730.5582,0.074575
732.4219,0.073927
734.2856,0.072976
736.1492,0.072956
738.0129,0.073151
739.8766,0.072986
741.7402,0.072462
743.6039,0.071945
745.4676,0.071432
747.3312,0.070605
749.1949,0.069876
751.0586,0.069392
752.9222,0.068653
754.7859,0.067877
756.6496,0.067351
758.5132,0.067481
760.3769,0.067468
762.2406,0.067003
764.1043,0.066165
765.9679,0.065538
767.8316,0.065503
769.6953,0.065505
771.5589,0.065069
773.4226,0.064626
775.2863,0.064066
777.1499,0.063661
779.0136,0.063387
780.8773,0.063082
782.7409,0.062335
784.6046,0.061616
786.4683,0.061179
788.3320,0.060326
790.1956,0.059230
792.0593,0.058735
793.9230,0.058482
795.7866,0.058232
797.6503,0.057773
799.5140,0.057328
801.3776,0.057208
803.2413,0.057096
805.1050,0.057072
806.9686,0.057155
808.8323,0.056898
810.6960,0.056249
812.5596,0.055822
814.4233,0.055581
816.2870,0.055159
818.1507,0.054713
820.0143,0.053799
821.8780,0.052912
823.7417,0.052496
825.6053,0.052207
827.4690,0.052027
829.3327,0.051735
831.1963,0.050892
833.0600,0.050537
834.9237,0.050470
836.7873,0.049969
838.6510,0.049124
840.5147,0.048462
842.3784,0.047923
844.2420,0.047353
846.1057,0.046982
847.9694,0.046857
849.8330,0.046628
851.6967,0.046409
853.5604,0.046278
855.4240,0.046026
857.2877,0.045987
859.1514,0.045985
861.0150,0.045923
862.8787,0.045905
864.7424,0.046040
866.6060,0.046470
868.4697,0.046690
870.3334,0.046760
872.1971,0.046763
874.0607,0.046449
875.9244,0.046031
877.7881,0.045660
879.6517,0.045242
881.5154,0.044855
883.3791,0.044479
885.2427,0.044141
887.1064,0.043906
888.9701,0.043876
890.8337,0.043802
892.6974,0.043806
894.5611,0.043869
896.4247,0.043801
898.2884,0.043648
900.1521,0.043450
902.0158,0.043113
903.8794,0.042911
905.7431,0.042721
907.6068,0.042600
909.4704,0.042576
911.3341,0.042602
913.1978,0.042837
915.0614,0.043343
916.9251,0.043743
918.7888,0.043994
920.6524,0.044288
922.5161,0.044518
924.3798,0.044672
926.2435,0.044739
928.1071,0.044792
929.9708,0.044784
931.8345,0.044679
933.6981,0.044491
935.5618,0.044559
937.4255,0.044943
939.2891,0.045232
941.1528,0.045640
943.0165,0.046058
944.8801,0.046328
946.7438,0.046422
948.6075,0.046542
950.4711,0.046536
952.3348,0.046341
954.1985,0.046338
956.0622,0.046662
957.9258,0.047239
959.7895,0.048172
961.6532,0.049350
963.5168,0.050629
965.3805,0.051696
967.2442,0.052516
969.1078,0.053253
970.9715,0.053714
972.8352,0.054058
974.6988,0.054590
976.5625,0.055254
978.4262,0.055939
980.2899,0.056689
982.1535,0.057541
984.0172,0.058214
985.8809,0.058791
987.7445,0.059321
989.6082,0.059776
991.4719,0.060284
993.3355,0.060846
995.1992,0.061452
997.0629,0.062029
998.9265,0.062638
1000.7902,0.063293
1002.6539,0.064152
1004.5175,0.065313
1006.3812,0.066696
1008.2449,0.068324
1010.1086,0.070167
1011.9722,0.072356
1013.8359,0.074702
1015.6996,0.077033
1017.5632,0.079141
1019.4269,0.080976
1021.2906,0.082539
1023.1542,0.083914
1025.0179,0.085044
1026.8816,0.086040
1028.7452,0.086947
1030.6089,0.087878
1032.4726,0.088581
1034.3362,0.089014
1036.1999,0.089187
1038.0636,0.089222
1039.9273,0.089003
1041.7909,0.088522
1043.6546,0.088067
1045.5183,0.087856
1047.3819,0.087556
1049.2456,0.087342
1051.1093,0.087408
1052.9729,0.087592
1054.8366,0.087799
1056.7003,0.087968
1058.5639,0.088197
1060.4276,0.088504
1062.2913,0.088748
1064.1550,0.089059
1066.0186,0.089305
1067.8823,0.089437
1069.7460,0.089458
1071.6096,0.089269
1073.4733,0.088700
1075.3370,0.087685
1077.2006,0.086223
1079.0643,0.084389
1080.9280,0.082291
1082.7916,0.080045
1084.6553,0.077719
1086.5190,0.075501
1088.3826,0.073618
1090.2463,0.071914
1092.1100,0.070513
1093.9737,0.069434
1095.8373,0.068387
1097.7010,0.067511
1099.5647,0.066835
1101.4283,0.066327
1103.2920,0.065859
1105.1557,0.065404
1107.0193,0.065106
1108.8830,0.064892
1110.7467,0.064625
1112.6103,0.064371
1114.4740,0.064138
1116.3377,0.063724
1118.2014,0.063069
1120.0650,0.062427
1121.9287,0.061825
1123.7924,0.061154
1125.6560,0.060475
1127.5197,0.059757
1129.3834,0.058829
1131.2470,0.057864
1133.1107,0.056979
1134.9744,0.056088
1136.8380,0.055150
1138.7017,0.054353
1140.5654,0.053740
1142.4290,0.053329
1144.2927,0.053152
1146.1564,0.053243
1148.0201,0.053381
1149.8837,0.053522
1151.7474,0.053729
1153.6111,0.053821
1155.4747,0.053709
1157.3384,0.053448
1159.2021,0.053103
1161.0657,0.052618
1162.9294,0.051999
1164.7931,0.051265
1166.6567,0.050296
1168.5204,0.049265
1170.3841,0.048197
1172.2477,0.046978
1174.1114,0.045666
1175.9751,0.044445
1177.8388,0.043404
1179.7024,0.042743
1181.5661,0.042391
1183.4298,0.042293
1185.2934,0.042429
1187.1571,0.042756
1189.0208,0.043132
1190.8844,0.043591
1192.7481,0.044156
1194.6118,0.044743
1196.4754,0.045527
1198.3391,0.046463
1200.2028,0.047294
1202.0665,0.048047
1203.9301,0.048775
1205.7938,0.049488
1207.6575,0.050068
1209.5211,0.050472
1211.3848,0.050951
1213.2485,0.051491
1215.1121,0.052021
1216.9758,0.052629
1218.8395,0.053346
1220.7031,0.054086
1222.5668,0.054896
1224.4305,0.055701
1226.2941,0.056385
1228.1578,0.057068
1230.0215,0.057680
1231.8852,0.058212
1233.7488,0.058528
1235.6125,0.058697
1237.4762,0.058804
1239.3398,0.058824
1241.2035,0.058683
1243.0672,0.058416
1244.9308,0.058035
1246.7945,0.057493
1248.6582,0.056902
1250.5218,0.056344
1252.3855,0.055820
1254.2492,0.055232
1256.1129,0.054709
1257.9765,0.054316
1259.8402,0.053935
1261.7039,0.053514
1263.5675,0.053116
1265.4312,0.052789
1267.2949,0.052521
1269.1585,0.052197
1271.0222,0.051967
1272.8859,0.051812
1274.7495,0.051606
1276.6132,0.051386
1278.4769,0.051165
1280.3405,0.051046
1282.2042,0.050953
1284.0679,0.050820
1285.9316,0.050739
1287.7952,0.050755
1289.6589,0.050777
1291.5226,0.050907
1293.3862,0.051062
1295.2499,0.051377
1297.1136,0.051733
1298.9772,0.052080
1300.8409,0.052465
1302.7046,0.052900
1304.5682,0.053329
1306.4319,0.053672
1308.2956,0.053962
1310.1592,0.054255
1312.0229,0.054558
1313.8866,0.054623
1315.7503,0.054485
1317.6139,0.054444
1319.4776,0.054346
1321.3413,0.053908
1323.2049,0.053414
1325.0686,0.053121
1326.9323,0.052842
1328.7959,0.052646
1330.6596,0.052471
1332.5233,0.052339
1334.3869,0.052264
1336.2506,0.052216
1338.1143,0.052527
1339.9780,0.053057
1341.8416,0.052972
1343.7053,0.052729
1345.5690,0.052460
1347.4326,0.052268
1349.2963,0.052160
1351.1600,0.052029
1353.0236,0.052111
1354.8873,0.052456
1356.7510,0.052602
1358.6146,0.052674
1360.4783,0.053393
1362.3420,0.054987
1364.2056,0.056132
1366.0693,0.056823
1367.9330,0.058085
1369.7967,0.059050
1371.6603,0.059687
1373.5240,0.061303
1375.3877,0.062613
1377.2513,0.062872
1379.1150,0.063371
1380.9787,0.063817
1382.8423,0.064065
1384.7060,0.064311
1386.5697,0.065430
1388.4333,0.066152
1390.2970,0.065715
1392.1607,0.065537
1394.0244,0.066417
1395.8880,0.067265
1397.7517,0.067474
1399.6154,0.067820
1401.4790,0.067156
1403.3427,0.066726
1405.2064,0.066560
1407.0700,0.065647
1408.9337,0.064637
1410.7974,0.063946
1412.6610,0.062932
1414.5247,0.061616
1416.3884,0.060687
1418.2520,0.061158
1420.1157,0.061026
1421.9794,0.059878
1423.8431,0.059784
1425.7067,0.059392
1427.5704,0.059152
1429.4341,0.059885
1431.2977,0.060300
1433.1614,0.060156
1435.0251,0.061340
1436.8887,0.064034
1438.7524,0.064295
1440.6161,0.063922
1442.4797,0.063914
1444.3434,0.063773
1446.2071,0.063983
1448.0707,0.064484
1449.9344,0.063812
1451.7981,0.062640
1453.6618,0.061325
1455.5254,0.061281
1457.3891,0.062575
1459.2528,0.060574
1461.1164,0.058150
1462.9801,0.056991
1464.8438,0.056849
1466.7074,0.055469
1468.5711,0.053702
1470.4348,0.052725
1472.2984,0.053125
1474.1621,0.052557
1476.0258,0.051615
1477.8895,0.050840
1479.7531,0.050509
1481.6168,0.050865
1483.4805,0.050948
1485.3441,0.051446
1487.2078,0.053320
1489.0715,0.056662
1490.9351,0.059454
1492.7988,0.059496
1494.6625,0.060797
1496.5261,0.065070
1498.3898,0.068673
1500.2535,0.069829
1502.1171,0.069631
1503.9808,0.070174
1505.8445,0.076414
1507.7082,0.086150
1509.5718,0.086149
1511.4355,0.086084
1513.2992,0.086869
1515.1628,0.088061
1517.0265,0.090117
1518.8902,0.090278
1520.7538,0.092422
1522.6175,0.095132
1524.4812,0.095174
1526.3448,0.096673
1528.2085,0.097299
1530.0722,0.096644
1531.9359,0.096968
1533.7995,0.098849
1535.6632,0.097118
1537.5269,0.095657
1539.3905,0.097593
1541.2542,0.099787
1543.1179,0.098739
1544.9815,0.097442
1546.8452,0.094716
1548.7089,0.092607
1550.5725,0.090602
1552.4362,0.087879
1554.2999,0.085210
1556.1635,0.082038
1558.0272,0.082042
1559.8909,0.082641
1561.7546,0.078903
1563.6182,0.076477
1565.4819,0.074273
1567.3456,0.072289
1569.2092,0.071737
1571.0729,0.069964
1572.9366,0.067546
1574.8002,0.066995
1576.6639,0.067587
1578.5276,0.066203
1580.3912,0.065114
1582.2549,0.064884
1584.1186,0.064747
1585.9822,0.064737
1587.8459,0.065076
1589.7096,0.065531
1591.5733,0.066368
1593.4369,0.067742
1595.3006,0.069088
1597.1643,0.070350
1599.0279,0.071857
1600.8916,0.073721
1602.7553,0.075742
1604.6189,0.077846
1606.4826,0.080135
1608.3463,0.083051
1610.2099,0.085772
1612.0736,0.087757
1613.9373,0.089360
1615.8010,0.093029
1617.6646,0.097211
1619.5283,0.097845
1621.3920,0.098756
1623.2556,0.101658
1625.1193,0.103606
1626.9830,0.104749
1628.8466,0.105630
1630.7103,0.105111
1632.5740,0.104099
1634.4376,0.104674
1636.3013,0.106133
1638.1650,0.104784
1640.0286,0.102899
1641.8923,0.100791
1643.7560,0.098743
1645.6197,0.097683
1647.4833,0.096318
1649.3470,0.093419
1651.2107,0.091553
1653.0743,0.091126
1654.9380,0.088418
1656.8017,0.085720
1658.6653,0.082796
1660.5290,0.079639
1662.3927,0.076590
1664.2563,0.073088
1666.1200,0.070075
1667.9837,0.067538
1669.8474,0.064206
1671.7110,0.060866
1673.5747,0.058703
1675.4384,0.056322
1677.3020,0.052802
1679.1657,0.050421
1681.0294,0.047649
1682.8930,0.044939
1684.7567,0.041379
1686.6204,0.037973
1688.4840,0.036149
1690.3477,0.033309
1692.2114,0.030421
1694.0750,0.028193
1695.9387,0.024844
1697.8024,0.021234
1699.6661,0.019241
1701.5297,0.015878
1703.3934,0.014724
1705.2571,0.014035
1707.1207,0.012330
1708.9844,0.011703
1710.8481,0.011235
1712.7117,0.010649
1714.5754,0.010025
1716.4391,0.008968
1718.3027,0.007589
1720.1664,0.007277
1722.0301,0.007623
1723.8937,0.007350
1725.7574,0.006956
1727.6211,0.007033
1729.4848,0.007010
1731.3484,0.006824
1733.2121,0.006123
1735.0758,0.004757
1736.9394,0.004825
1738.8031,0.005470
1740.6668,0.005040
1742.5304,0.004721
1744.3941,0.004659
1746.2578,0.004801
1748.1214,0.004710
1749.9851,0.003919
1751.8488,0.003306
1753.7125,0.003530
1755.5761,0.003903
1757.4398,0.003663
1759.3035,0.003550
1761.1671,0.003649
1763.0308,0.003133
1764.8945,0.003287
1766.7581,0.003613
1768.6218,0.003549
1770.4855,0.003440
1772.3491,0.002879
1774.2128,0.002269
1776.0765,0.002815
1777.9401,0.003141
1779.8038,0.003081
1781.6675,0.002924
1783.5312,0.002943
1785.3948,0.002797
1787.2585,0.002752
1789.1222,0.003034
1790.9858,0.002908
1792.8495,0.002230
1794.7132,0.002255
1796.5768,0.002851
1798.4405,0.002957
1800.3042,0.002635
1802.1678,0.002481
1804.0315,0.002499
1805.8952,0.002586
1807.7589,0.002413
1809.6225,0.002224
1811.4862,0.002180
1813.3499,0.002303
1815.2135,0.002423
1817.0772,0.002331
1818.9409,0.002335
1820.8045,0.002457
1822.6682,0.002489
1824.5319,0.002390
1826.3955,0.002121
1828.2592,0.002333
1830.1229,0.002098
1831.9865,0.001622
1833.8502,0.001883
1835.7139,0.001901
1837.5776,0.001781
1839.4412,0.001892
1841.3049,0.002319
1843.1686,0.002226
1845.0322,0.001513
1846.8959,0.001755
1848.7596,0.001954
1850.6232,0.001998
1852.4869,0.002194
1854.3506,0.002009
1856.2142,0.001682
1858.0779,0.001640
1859.9416,0.001769
1861.8052,0.001954
1863.6689,0.002077
1865.5326,0.002332
1867.3963,0.002252
1869.2599,0.001621
1871.1236,0.000964
1872.9873,0.001352
1874.8509,0.001994
1876.7146,0.002112
1878.5783,0.001942
1880.4419,0.001716
1882.3056,0.001486
1884.1693,0.001662
1886.0329,0.001934
1887.8966,0.002083
1889.7603,0.001620
1891.6240,0.001110
1893.4876,0.001440
1895.3513,0.001772
1897.2150,0.001534
1899.0786,0.001532
1900.9423,0.001708
1902.8060,0.001600
1904.6696,0.001503
1906.5333,0.001535
1908.3970,0.001249
1910.2606,0.001163
1912.1243,0.001587
1913.9880,0.001725
1915.8516,0.001605
1917.7153,0.001848
1919.5790,0.001510
1921.4427,0.001166
1923.3063,0.000925
1925.1700,0.000906
1927.0337,0.000961
1928.8973,0.000787
1930.7610,0.000702
1932.6247,0.001221
1934.4883,0.001391
1936.3520,0.000827
1938.2157,0.000670
1940.0793,0.000418
1941.9430,0.000197
1943.8067,0.000693
1945.6704,0.001213
1947.5340,0.000668
1949.3977,-0.000458
1951.2614,-0.000221
1953.1250,0.000821
1954.9887,0.001196
1956.8524,0.000503
1958.7160,0.000191
1960.5797,0.000350
1962.4434,-0.000169
1964.3070,-0.001431
1966.1707,-0.002296
1968.0344,-0.002673
1969.8980,-0.002083
1971.7617,-0.002085
1973.6254,-0.001902
1975.4891,-0.001505
1977.3527,-0.000660
1979.2164,-0.000104
1981.0801,-0.000421
1982.9437,-0.000652
1984.8074,-0.000776
1986.6711,-0.001366
1988.5347,-0.000986
1990.3984,-0.000407
1992.2621,-0.000795
1994.1257,-0.001227
1995.9894,-0.000676
1997.8531,0.000374
1999.7167,0.000260
2001.5804,-0.000171
2003.4441,-0.000302
2005.3078,-0.000788
2007.1714,-0.001079
2009.0351,-0.001440
2010.8988,-0.001604
2012.7624,-0.001539
2014.6261,-0.001385
2016.4898,-0.001316
2018.3534,-0.001553
2020.2171,-0.001335
2022.0808,-0.001156
2023.9444,-0.000832
2025.8081,-0.000498
2027.6718,-0.001032
2029.5355,-0.000433
2031.3991,-0.000334
2033.2628,-0.000908
2035.1265,-0.000799
2036.9901,0.000530
2038.8538,0.001338
2040.7175,0.001470
2042.5811,0.001488
2044.4448,0.001328
2046.3085,0.001080
2048.1721,0.001846
2050.0358,0.002636
2051.8995,0.002862
2053.7631,0.003207
2055.6268,0.003550
2057.4905,0.003878
2059.3542,0.003720
2061.2178,0.002767
2063.0815,0.002569
2064.9452,0.003040
2066.8088,0.003610
2068.6725,0.003627
2070.5362,0.003056
2072.3998,0.002795
2074.2635,0.003384
2076.1272,0.003740
2077.9908,0.003378
2079.8545,0.002975
2081.7182,0.003003
2083.5819,0.003267
2085.4455,0.003605
2087.3092,0.002937
2089.1729,0.002775
2091.0365,0.003161
2092.9002,0.003024
2094.7639,0.002762
2096.6275,0.003184
2098.4912,0.003403
2100.3549,0.002854
2102.2185,0.002601
2104.0822,0.002481
2105.9459,0.002302
2107.8095,0.002683
2109.6732,0.003067
2111.5369,0.003208
2113.4006,0.002812
2115.2642,0.002748
2117.1279,0.002868
2118.9916,0.002761
2120.8552,0.002442
2122.7189,0.002493
2124.5826,0.001896
2126.4462,0.001358
2128.3099,0.001550
2130.1736,0.001627
2132.0372,0.001538
2133.9009,0.001362
2135.7646,0.000861
2137.6282,0.000622
2139.4919,0.000843
2141.3556,0.000168
2143.2193,-0.000489
2145.0829,-0.000664
2146.9466,-0.000826
2148.8103,-0.000917
2150.6739,-0.000863
2152.5376,-0.001622
2154.4013,-0.003427
2156.2649,-0.003357
2158.1286,-0.001491
2159.9923,-0.000874
2161.8559,-0.001333
2163.7196,-0.000745
2165.5833,0.000829
2167.4470,0.001185
2169.3106,0.000267
2171.1743,0.001169
2173.0380,0.001641
2174.9016,0.001324
2176.7653,0.001305
2178.6290,0.000408
2180.4926,0.000545
2182.3563,0.001987
2184.2200,0.001494
2186.0836,0.000397
2187.9473,0.000466
2189.8110,0.001137
2191.6746,0.002119
2193.5383,0.002491
2195.4020,0.001072
2197.2657,0.000051
2199.1293,0.000902
2200.9930,0.002537
2202.8567,0.002593
2204.7203,0.002713
2206.5840,0.002749
2208.4477,0.002739
2210.3113,0.002850
2212.1750,0.002482
2214.0387,0.002046
2215.9023,0.002265
2217.7660,0.002524
2219.6297,0.002461
2221.4934,0.002615
2223.3570,0.002822
2225.2207,0.002677
2227.0844,0.002244
2228.9480,0.002518
2230.8117,0.003555
2232.6754,0.002895
2234.5390,0.002170
2236.4027,0.002873
2238.2664,0.003412
2240.1300,0.003526
2241.9937,0.003518
2243.8574,0.003251
2245.7210,0.003308
2247.5847,0.003715
2249.4484,0.003903
2251.3121,0.003412
2253.1757,0.003169
2255.0394,0.003359
2256.9031,0.003701
2258.7667,0.004102
2260.6304,0.004386
2262.4941,0.004373
2264.3577,0.004392
2266.2214,0.004407
2268.0851,0.004380
2269.9487,0.004173
2271.8124,0.004171
2273.6761,0.004186
2275.5397,0.004321
2277.4034,0.004700
2279.2671,0.005021
2281.1308,0.005279
2282.9944,0.005263
2284.8581,0.005287
2286.7218,0.005652
2288.5854,0.005683
2290.4491,0.005438
2292.3128,0.005331
2294.1764,0.005321
2296.0401,0.005071
2297.9038,0.005163
2299.7674,0.005497
2301.6311,0.005408
2303.4948,0.005231
2305.3585,0.005363
2307.2221,0.005596
2309.0858,0.005685
2310.9495,0.005364
2312.8131,0.005337
2314.6768,0.005507
2316.5405,0.005327
2318.4041,0.005234
2320.2678,0.005241
2322.1315,0.004970
2323.9951,0.005259
2325.8588,0.005525
2327.7225,0.005128
2329.5861,0.004516
2331.4498,0.004165
2333.3135,0.004481
2335.1772,0.004676
2337.0408,0.004176
2338.9045,0.004240
2340.7682,0.004343
2342.6318,0.004343
2344.4955,0.004617
2346.3592,0.004574
2348.2228,0.004259
2350.0865,0.004700
2351.9502,0.004851
2353.8138,0.004287
2355.6775,0.004041
2357.5412,0.003974
2359.4049,0.003966
2361.2685,0.003867
2363.1322,0.004294
2364.9959,0.004823
2366.8595,0.004568
2368.7232,0.004847
2370.5869,0.005145
2372.4505,0.005098
2374.3142,0.005297
2376.1779,0.005256
2378.0415,0.005405
2379.9052,0.005562
2381.7689,0.005572
2383.6325,0.005697
2385.4962,0.005628
2387.3599,0.005569
2389.2236,0.005729
2391.0872,0.005972
2392.9509,0.005958
2394.8146,0.005980
2396.6782,0.006207
2398.5419,0.006247
2400.4056,0.006100
2402.2692,0.006056
2404.1329,0.005906
2405.9966,0.005819
2407.8602,0.005983
2409.7239,0.006039
2411.5876,0.006021
2413.4512,0.006154
2415.3149,0.006286
2417.1786,0.006279
2419.0423,0.006002
2420.9059,0.006111
2422.7696,0.006477
2424.6333,0.006377
2426.4969,0.006259
2428.3606,0.006510
2430.2243,0.006552
2432.0879,0.006597
2433.9516,0.006734
2435.8153,0.006645
2437.6789,0.006562
2439.5426,0.006678
2441.4063,0.006667
2443.2700,0.006652
2445.1336,0.006876
2446.9973,0.006868
2448.8610,0.006642
2450.7246,0.006647
2452.5883,0.006638
2454.4520,0.006586
2456.3156,0.006762
2458.1793,0.006859
2460.0430,0.006883
2461.9066,0.007017
2463.7703,0.006816
2465.6340,0.006703
2467.4976,0.006944
2469.3613,0.007219
2471.2250,0.007123
2473.0887,0.006866
2474.9523,0.006676
2476.8160,0.006639
2478.6797,0.006756
2480.5433,0.006851
2482.4070,0.006942
2484.2707,0.007079
2486.1343,0.007095
2487.9980,0.006987
2489.8617,0.007128
2491.7253,0.007488
2493.5890,0.007703
2495.4527,0.007701
2497.3164,0.007407
2499.1800,0.007392
2501.0437,0.007485
2502.9074,0.007468
2504.7710,0.007506
2506.6347,0.007586
2508.4984,0.007826
2510.3620,0.007990
2512.2257,0.007766
2514.0894,0.007718
2515.9530,0.007770
2517.8167,0.007806
2519.6804,0.007827
2521.5440,0.007707
2523.4077,0.007486
2525.2714,0.007620
2527.1351,0.008178
2528.9987,0.008343
2530.8624,0.008144
2532.7261,0.007946
2534.5897,0.007627
2536.4534,0.007665
2538.3171,0.007921
2540.1807,0.008036
2542.0444,0.008091
2543.9081,0.008081
2545.7717,0.008431
2547.6354,0.008706
2549.4991,0.008394
2551.3627,0.008288
2553.2264,0.008316
2555.0901,0.008339
2556.9538,0.008497
2558.8174,0.008846
2560.6811,0.008723
2562.5448,0.008398
2564.4084,0.008845
2566.2721,0.009122
2568.1358,0.008873
2569.9994,0.009004
2571.8631,0.009150
2573.7268,0.009062
2575.5904,0.009093
2577.4541,0.009192
2579.3178,0.009202
2581.1815,0.009248
2583.0451,0.009173
2584.9088,0.009028
2586.7725,0.009154
2588.6361,0.009562
2590.4998,0.009782
2592.3635,0.009563
2594.2271,0.009461
2596.0908,0.009784
2597.9545,0.009938
2599.8181,0.009895
2601.6818,0.009804
2603.5455,0.010021
2605.4091,0.010122
2607.2728,0.009988
2609.1365,0.010244
2611.0002,0.010479
2612.8638,0.010448
2614.7275,0.010304
2616.5912,0.010266
2618.4548,0.010534
2620.3185,0.010827
