Wavenumber,Intensity
650.4205,0.125869
652.2841,0.125795
654.1478,0.124966
656.0115,0.123963
657.8751,0.123955
659.7388,0.123907
661.6025,0.124377
663.4661,0.122358
665.3298,0.120854
667.1935,0.121668
669.0571,0.122138
670.9208,0.120819
672.7845,0.120703
674.6481,0.120188
676.5118,0.117782
678.3755,0.117106
680.2392,0.118379
682.1028,0.117895
683.9665,0.116101
685.8302,0.114710
687.6938,0.114279
689.5575,0.113816
691.4212,0.113099
693.2848,0.111766
695.1485,0.111542
697.0122,0.111319
698.8758,0.110183
700.7395,0.110192
702.6032,0.110854
704.4669,0.110463
706.3305,0.108660
708.1942,0.106392
710.0579,0.105236
711.9215,0.104983
713.7852,0.104155
715.6489,0.102079
717.5125,0.100610
719.3762,0.100481
721.2399,0.099961
723.1035,0.098939
724.9672,0.098032
726.8309,0.096709
728.6945,0.095388
730.5582,0.095152
732.4219,0.095046
734.2856,0.094371
736.1492,0.094135
738.0129,0.094021
739.8766,0.093494
741.7402,0.092933
743.6039,0.092540
745.4676,0.091668
747.3312,0.090342
749.1949,0.089968
751.0586,0.090025
752.9222,0.089001
754.7859,0.087906
756.6496,0.087723
758.5132,0.087516
760.3769,0.087062
762.2406,0.086701
764.1043,0.086028
765.9679,0.085317
767.8316,0.085507
769.6953,0.085540
771.5589,0.084827
773.4226,0.084531
775.2863,0.084251
777.1499,0.083717
779.0136,0.083163
780.8773,0.082344
782.7409,0.081695
784.6046,0.080802
786.4683,0.079771
788.3320,0.078997
790.1956,0.077531
792.0593,0.075879
793.9230,0.074858
795.7866,0.074035
797.6503,0.073495
799.5140,0.073125
801.3776,0.072378
803.2413,0.071860
805.1050,0.071755
806.9686,0.071021
808.8323,0.070132
810.6960,0.069771
812.5596,0.069536
814.4233,0.069357
816.2870,0.069226
818.1507,0.068612
820.0143,0.067633
821.8780,0.067131
823.7417,0.067030
825.6053,0.066715
827.4690,0.066634
829.3327,0.066610
831.1963,0.066340
833.0600,0.066068
834.9237,0.065819
836.7873,0.065679
838.6510,0.065780
840.5147,0.065767
842.3784,0.065485
844.2420,0.065212
846.1057,0.065213
847.9694,0.065484
849.8330,0.065762
851.6967,0.066020
853.5604,0.066186
855.4240,0.065989
857.2877,0.065779
859.1514,0.065442
861.0150,0.064908
862.8787,0.064564
864.7424,0.064336
866.6060,0.063943
868.4697,0.063699
870.3334,0.063608
872.1971,0.063352
874.0607,0.063059
875.9244,0.062639
877.7881,0.061852
879.6517,0.061170
881.5154,0.060750
883.3791,0.060379
885.2427,0.060029
887.1064,0.059948
888.9701,0.060004
890.8337,0.060047
892.6974,0.060378
894.5611,0.060729
896.4247,0.060905
898.2884,0.061261
900.1521,0.061582
902.0158,0.061773
903.8794,0.061988
905.7431,0.062287
907.6068,0.062577
909.4704,0.063004
911.3341,0.063613
913.1978,0.064482
915.0614,0.065632
916.9251,0.066852
918.7888,0.067775
920.6524,0.068530
922.5161,0.069425
924.3798,0.070173
926.2435,0.070674
928.1071,0.071075
929.9708,0.071178
931.8345,0.071035
933.6981,0.071093
935.5618,0.071165
937.4255,0.071026
939.2891,0.070951
941.1528,0.071121
943.0165,0.071392
944.8801,0.071298
946.7438,0.071022
948.6075,0.070670
950.4711,0.070146
952.3348,0.069697
954.1985,0.069451
956.0622,0.069473
957.9258,0.069755
959.7895,0.070299
961.6532,0.071362
963.5168,0.072806
965.3805,0.074253
967.2442,0.075592
969.1078,0.076831
970.9715,0.077922
972.8352,0.079136
974.6988,0.080638
976.5625,0.082388
978.4262,0.084440
980.2899,0.086884
982.1535,0.089537
984.0172,0.092095
985.8809,0.094604
987.7445,0.096927
989.6082,0.098792
991.4719,0.100369
993.3355,0.101664
995.1992,0.102806
997.0629,0.104163
998.9265,0.105778
1000.7902,0.107665
1002.6539,0.110049
1004.5175,0.112883
1006.3812,0.115960
1008.2449,0.119435
1010.1086,0.123271
1011.9722,0.127204
1013.8359,0.131218
1015.6996,0.135089
1017.5632,0.138658
1019.4269,0.141760
1021.2906,0.144251
1023.1542,0.146169
1025.0179,0.147714
1026.8816,0.149010
1028.7452,0.150119
1030.6089,0.150974
1032.4726,0.151389
1034.3362,0.151380
1036.1999,0.151057
1038.0636,0.150187
1039.9273,0.148749
1041.7909,0.147048
1043.6546,0.145242
1045.5183,0.143348
1047.3819,0.141727
1049.2456,0.140604
1051.1093,0.139690
1052.9729,0.139013
1054.8366,0.138414
1056.7003,0.137727
1058.5639,0.137113
1060.4276,0.136753
1062.2913,0.136700
1064.1550,0.136907
1066.0186,0.137535
1067.8823,0.138339
1069.7460,0.139016
1071.6096,0.139483
1073.4733,0.139203
1075.3370,0.138002
1077.2006,0.136087
1079.0643,0.133307
1080.9280,0.129673
1082.7916,0.125598
1084.6553,0.121478
1086.5190,0.117641
1088.3826,0.114396
1090.2463,0.111749
1092.1100,0.109787
1093.9737,0.108452
1095.8373,0.107552
1097.7010,0.106984
1099.5647,0.106674
1101.4283,0.106418
1103.2920,0.106304
1105.1557,0.106270
1107.0193,0.106250
1108.8830,0.106256
1110.7467,0.106152
1112.6103,0.105894
1114.4740,0.105498
1116.3377,0.104942
1118.2014,0.104227
1120.0650,0.103464
1121.9287,0.102467
1123.7924,0.101169
1125.6560,0.099797
1127.5197,0.098395
1129.3834,0.096827
1131.2470,0.095159
1133.1107,0.093584
1134.9744,0.092175
1136.8380,0.091111
1138.7017,0.090549
1140.5654,0.090285
1142.4290,0.090196
1144.2927,0.090262
1146.1564,0.090318
1148.0201,0.090179
1149.8837,0.089829
1151.7474,0.089138
1153.6111,0.087978
1155.4747,0.086420
1157.3384,0.084635
1159.2021,0.082805
1161.0657,0.080977
1162.9294,0.079059
1164.7931,0.077167
1166.6567,0.075404
1168.5204,0.073652
1170.3841,0.071877
1172.2477,0.070038
1174.1114,0.068138
1175.9751,0.066228
1177.8388,0.064561
1179.7024,0.063138
1181.5661,0.061900
1183.4298,0.060994
1185.2934,0.060434
1187.1571,0.060123
1189.0208,0.060000
1190.8844,0.060061
1192.7481,0.060289
1194.6118,0.060707
1196.4754,0.061125
1198.3391,0.061586
1200.2028,0.062111
1202.0665,0.062594
1203.9301,0.063070
1205.7938,0.063450
1207.6575,0.063729
1209.5211,0.063939
1211.3848,0.064193
1213.2485,0.064553
1215.1121,0.064906
1216.9758,0.065407
1218.8395,0.066201
1220.7031,0.067086
1222.5668,0.067985
1224.4305,0.068918
1226.2941,0.069907
1228.1578,0.070735
1230.0215,0.071463
1231.8852,0.072131
1233.7488,0.072663
1235.6125,0.073139
1237.4762,0.073524
1239.3398,0.073680
1241.2035,0.073647
1243.0672,0.073585
1244.9308,0.073412
1246.7945,0.073119
1248.6582,0.072756
1250.5218,0.072266
1252.3855,0.071824
1254.2492,0.071452
1256.1129,0.070973
1257.9765,0.070440
1259.8402,0.070064
1261.7039,0.069740
1263.5675,0.069381
1265.4312,0.069009
1267.2949,0.068602
1269.1585,0.068225
1271.0222,0.068049
1272.8859,0.067849
1274.7495,0.067529
1276.6132,0.067334
1278.4769,0.067241
1280.3405,0.067128
1282.2042,0.066980
1284.0679,0.066871
1285.9316,0.066824
1287.7952,0.066902
1289.6589,0.067032
1291.5226,0.067186
1293.3862,0.067498
1295.2499,0.068009
1297.1136,0.068668
1298.9772,0.069260
1300.8409,0.069996
1302.7046,0.070856
1304.5682,0.071610
1306.4319,0.072426
1308.2956,0.073169
1310.1592,0.073796
1312.0229,0.074424
1313.8866,0.074813
1315.7503,0.074984
1317.6139,0.075182
1319.4776,0.075102
1321.3413,0.074784
1323.2049,0.074433
1325.0686,0.074084
1326.9323,0.073882
1328.7959,0.073757
1330.6596,0.073730
1332.5233,0.073800
1334.3869,0.073735
1336.2506,0.073852
1338.1143,0.074637
1339.9780,0.075666
1341.8416,0.075822
1343.7053,0.075603
1345.5690,0.075609
1347.4326,0.075732
1349.2963,0.075880
1351.1600,0.075894
1353.0236,0.075955
1354.8873,0.076283
1356.7510,0.076450
1358.6146,0.076435
1360.4783,0.077024
1362.3420,0.078427
1364.2056,0.079140
1366.0693,0.079270
1367.9330,0.079962
1369.7967,0.080492
1371.6603,0.080933
1373.5240,0.082435
1375.3877,0.083696
1377.2513,0.083835
1379.1150,0.084279
1380.9787,0.084777
1382.8423,0.085068
1384.7060,0.085475
1386.5697,0.087027
1388.4333,0.088318
1390.2970,0.087875
1392.1607,0.087833
1394.0244,0.089369
1395.8880,0.090738
1397.7517,0.091132
1399.6154,0.091815
1401.4790,0.091233
1403.3427,0.090905
1405.2064,0.091328
1407.0700,0.090531
1408.9337,0.089408
1410.7974,0.088696
1412.6610,0.087534
1414.5247,0.085941
1416.3884,0.084846
1418.2520,0.085219
1420.1157,0.085011
1421.9794,0.082784
1423.8431,0.081398
1425.7067,0.080296
1427.5704,0.079280
1429.4341,0.079238
1431.2977,0.079087
1433.1614,0.078343
1435.0251,0.079182
1436.8887,0.082261
1438.7524,0.082449
1440.6161,0.081696
1442.4797,0.082148
1444.3434,0.082626
1446.2071,0.083539
1448.0707,0.084689
1449.9344,0.084492
1451.7981,0.083432
1453.6618,0.082433
1455.5254,0.082795
1457.3891,0.084968
1459.2528,0.082132
1461.1164,0.078565
1462.9801,0.076736
1464.8438,0.076276
1466.7074,0.074259
1468.5711,0.071454
1470.4348,0.069466
1472.2984,0.068934
1474.1621,0.067225
1476.0258,0.064609
1477.8895,0.062256
1479.7531,0.060627
1481.6168,0.059583
1483.4805,0.058322
1485.3441,0.057399
1487.2078,0.057948
1489.0715,0.059811
1490.9351,0.060768
1492.7988,0.060191
1494.6625,0.060976
1496.5261,0.064304
1498.3898,0.066798
1500.2535,0.067337
1502.1171,0.067373
1503.9808,0.068521
1505.8445,0.074894
1507.7082,0.083188
1509.5718,0.083906
1511.4355,0.085116
1513.2992,0.087613
1515.1628,0.090344
1517.0265,0.093205
1518.8902,0.094608
1520.7538,0.097568
1522.6175,0.100934
1524.4812,0.101557
1526.3448,0.103878
1528.2085,0.105660
1530.0722,0.106458
1531.9359,0.108442
1533.7995,0.111840
1535.6632,0.111274
1537.5269,0.110614
1539.3905,0.115679
1541.2542,0.120384
1543.1179,0.119636
1544.9815,0.118831
1546.8452,0.117131
1548.7089,0.115749
1550.5725,0.114587
1552.4362,0.112351
1554.2999,0.110212
1556.1635,0.108605
1558.0272,0.110957
1559.8909,0.113191
1561.7546,0.107633
1563.6182,0.104178
1565.4819,0.102426
1567.3456,0.101279
1569.2092,0.101677
1571.0729,0.100728
1572.9366,0.098142
1574.8002,0.098151
1576.6639,0.100082
1578.5276,0.098852
1580.3912,0.097122
1582.2549,0.096794
1584.1186,0.096949
1585.9822,0.097142
1587.8459,0.097297
1589.7096,0.097803
1591.5733,0.098315
1593.4369,0.098904
1595.3006,0.099690
1597.1643,0.100591
1599.0279,0.101415
1600.8916,0.102445
1602.7553,0.103588
1604.6189,0.105015
1606.4826,0.106791
1608.3463,0.109082
1610.2099,0.111209
1612.0736,0.112860
1613.9373,0.114812
1615.8010,0.119512
1617.6646,0.124873
1619.5283,0.125585
1621.3920,0.127109
1623.2556,0.131145
1625.1193,0.133701
1626.9830,0.135232
1628.8466,0.136882
1630.7103,0.136859
1632.5740,0.136455
1634.4376,0.138470
1636.3013,0.141290
1638.1650,0.139135
1640.0286,0.136096
1641.8923,0.134117
1643.7560,0.132507
1645.6197,0.132189
1647.4833,0.131683
1649.3470,0.127877
1651.2107,0.125521
1653.0743,0.128559
1654.9380,0.125654
1656.8017,0.119768
1658.6653,0.115524
1660.5290,0.112390
1662.3927,0.109243
1664.2563,0.105116
1666.1200,0.100610
1667.9837,0.097264
1669.8474,0.094189
1671.7110,0.089957
1673.5747,0.085737
1675.4384,0.082027
1677.3020,0.077439
1679.1657,0.072964
1681.0294,0.068931
1682.8930,0.065789
1684.7567,0.061839
1686.6204,0.056936
1688.4840,0.052786
1690.3477,0.048618
1692.2114,0.044480
1694.0750,0.040908
1695.9387,0.037026
1697.8024,0.033322
1699.6661,0.030294
1701.5297,0.027248
1703.3934,0.024716
1705.2571,0.022666
1707.1207,0.020772
1708.9844,0.019200
1710.8481,0.017829
1712.7117,0.016761
1714.5754,0.015819
1716.4391,0.015247
1718.3027,0.014002
1720.1664,0.012862
1722.0301,0.012021
1723.8937,0.011254
1725.7574,0.010462
1727.6211,0.009652
1729.4848,0.008876
1731.3484,0.008738
1733.2121,0.008603
1735.0758,0.008130
1736.9394,0.007541
1738.8031,0.007244
1740.6668,0.007033
1742.5304,0.006798
1744.3941,0.006620
1746.2578,0.006223
1748.1214,0.005448
1749.9851,0.004576
1751.8488,0.003533
1753.7125,0.002792
1755.5761,0.001885
1757.4398,0.001329
1759.3035,0.001083
1761.1671,0.000700
1763.0308,0.000311
1764.8945,-0.000045
1766.7581,-0.000378
1768.6218,-0.000447
1770.4855,-0.000576
1772.3491,-0.000783
1774.2128,-0.000988
1776.0765,-0.001082
1777.9401,-0.001022
1779.8038,-0.001199
1781.6675,-0.001206
1783.5312,-0.001267
1785.3948,-0.001576
1787.2585,-0.001724
1789.1222,-0.001748
1790.9858,-0.001809
1792.8495,-0.001848
1794.7132,-0.001817
1796.5768,-0.001814
1798.4405,-0.001906
1800.3042,-0.002196
1802.1678,-0.002411
1804.0315,-0.002335
1805.8952,-0.002226
1807.7589,-0.002319
1809.6225,-0.002571
1811.4862,-0.002844
1813.3499,-0.002805
1815.2135,-0.002783
1817.0772,-0.002767
1818.9409,-0.002520
1820.8045,-0.002525
1822.6682,-0.002783
1824.5319,-0.002692
1826.3955,-0.002586
1828.2592,-0.002626
1830.1229,-0.002673
1831.9865,-0.002518
1833.8502,-0.002527
1835.7139,-0.002835
1837.5776,-0.003303
1839.4412,-0.002963
1841.3049,-0.002546
1843.1686,-0.002553
1845.0322,-0.002561
1846.8959,-0.002526
1848.7596,-0.002614
1850.6232,-0.002767
1852.4869,-0.002821
1854.3506,-0.002724
1856.2142,-0.002824
1858.0779,-0.002952
1859.9416,-0.002897
1861.8052,-0.002918
1863.6689,-0.002788
1865.5326,-0.002696
1867.3963,-0.002912
1869.2599,-0.003122
1871.1236,-0.003104
1872.9873,-0.002917
1874.8509,-0.002696
1876.7146,-0.002455
1878.5783,-0.002368
1880.4419,-0.002432
1882.3056,-0.002335
1884.1693,-0.002082
1886.0329,-0.002007
1887.8966,-0.002372
1889.7603,-0.002953
1891.6240,-0.002963
1893.4876,-0.002836
1895.3513,-0.002702
1897.2150,-0.002097
1899.0786,-0.002113
1900.9423,-0.002523
1902.8060,-0.002304
1904.6696,-0.002187
1906.5333,-0.002410
1908.3970,-0.002847
1910.2606,-0.002415
1912.1243,-0.001941
1913.9880,-0.002490
1915.8516,-0.002622
1917.7153,-0.002323
1919.5790,-0.002018
1921.4427,-0.001892
1923.3063,-0.002182
1925.1700,-0.002046
1927.0337,-0.001996
1928.8973,-0.002469
1930.7610,-0.002076
1932.6247,-0.001501
1934.4883,-0.001918
1936.3520,-0.002289
1938.2157,-0.002044
1940.0793,-0.001591
1941.9430,-0.001545
1943.8067,-0.001390
1945.6704,-0.001304
1947.5340,-0.001864
1949.3977,-0.001987
1951.2614,-0.001021
1953.1250,-0.000876
1954.9887,-0.000965
1956.8524,-0.000848
1958.7160,-0.001250
1960.5797,-0.001723
1962.4434,-0.000504
1964.3070,0.000491
1966.1707,-0.000079
1968.0344,-0.000451
1969.8980,-0.000538
1971.7617,-0.000331
1973.6254,0.000638
1975.4891,0.000988
1977.3527,0.001714
1979.2164,0.002943
1981.0801,0.001855
1982.9437,0.000553
1984.8074,0.000626
1986.6711,0.001242
1988.5347,0.001949
1990.3984,0.001237
1992.2621,0.000153
1994.1257,0.001023
1995.9894,0.001324
1997.8531,-0.000078
1999.7167,-0.000624
2001.5804,-0.000161
2003.4441,-0.000160
2005.3078,-0.000550
2007.1714,0.000634
2009.0351,0.000795
2010.8988,-0.000602
2012.7624,-0.000316
2014.6261,0.000742
2016.4898,0.001245
2018.3534,0.001938
2020.2171,0.002245
2022.0808,0.002594
2023.9444,0.002435
2025.8081,0.002072
2027.6718,0.002162
2029.5355,0.002335
2031.3991,0.002788
2033.2628,0.002416
2035.1265,0.001945
2036.9901,0.002594
2038.8538,0.003393
2040.7175,0.002634
2042.5811,0.002677
2044.4448,0.004068
2046.3085,0.004329
2048.1721,0.003505
2050.0358,0.002853
2051.8995,0.003326
2053.7631,0.003214
2055.6268,0.002408
2057.4905,0.002478
2059.3542,0.002703
2061.2178,0.002587
2063.0815,0.002468
2064.9452,0.002422
2066.8088,0.002600
2068.6725,0.002996
2070.5362,0.003027
2072.3998,0.002645
2074.2635,0.002519
2076.1272,0.002360
2077.9908,0.001947
2079.8545,0.002182
2081.7182,0.002326
2083.5819,0.001957
2085.4455,0.002008
2087.3092,0.002268
2089.1729,0.002237
2091.0365,0.002209
2092.9002,0.001857
2094.7639,0.001887
2096.6275,0.002297
2098.4912,0.002097
2100.3549,0.001866
2102.2185,0.002013
2104.0822,0.002278
2105.9459,0.002838
2107.8095,0.003014
2109.6732,0.002629
2111.5369,0.002470
2113.4006,0.002234
2115.2642,0.002229
2117.1279,0.002537
2118.9916,0.002709
2120.8552,0.002790
2122.7189,0.002399
2124.5826,0.001919
2126.4462,0.001582
2128.3099,0.000729
2130.1736,0.000361
2132.0372,0.000877
2133.9009,0.001519
2135.7646,0.002172
2137.6282,0.002843
2139.4919,0.002857
2141.3556,0.002248
2143.2193,0.002476
2145.0829,0.004145
2146.9466,0.004655
2148.8103,0.003386
2150.6739,0.002757
2152.5376,0.003133
2154.4013,0.003527
2156.2649,0.003168
2158.1286,0.004202
2159.9923,0.006956
2161.8559,0.007577
2163.7196,0.006488
2165.5833,0.005558
2167.4470,0.005309
2169.3106,0.005633
2171.1743,0.005260
2173.0380,0.005375
2174.9016,0.006484
2176.7653,0.006394
2178.6290,0.005277
2180.4926,0.004651
2182.3563,0.005048
2184.2200,0.005215
2186.0836,0.004789
2187.9473,0.004508
2189.8110,0.003740
2191.6746,0.003734
2193.5383,0.005118
2195.4020,0.005989
2197.2657,0.005861
2199.1293,0.005360
2200.9930,0.005353
2202.8567,0.005143
2204.7203,0.004156
2206.5840,0.003993
2208.4477,0.004452
2210.3113,0.004730
2212.1750,0.005034
2214.0387,0.005122
2215.9023,0.004689
2217.7660,0.004307
2219.6297,0.004337
2221.4934,0.004108
2223.3570,0.004565
2225.2207,0.005247
2227.0844,0.004598
2228.9480,0.004148
2230.8117,0.004841
2232.6754,0.005318
2234.5390,0.004509
2236.4027,0.003605
2238.2664,0.003402
2240.1300,0.003772
2241.9937,0.004221
2243.8574,0.003967
2245.7210,0.003485
2247.5847,0.003357
2249.4484,0.003749
2251.3121,0.004322
2253.1757,0.004539
2255.0394,0.004564
2256.9031,0.004216
2258.7667,0.004161
2260.6304,0.004475
2262.4941,0.003831
2264.3577,0.003103
2266.2214,0.003461
2268.0851,0.004103
2269.9487,0.004135
2271.8124,0.004066
2273.6761,0.004212
2275.5397,0.004320
2277.4034,0.004406
2279.2671,0.004809
2281.1308,0.004926
2282.9944,0.004591
2284.8581,0.004638
2286.7218,0.004631
2288.5854,0.004089
2290.4491,0.003682
2292.3128,0.004044
2294.1764,0.004508
2296.0401,0.004093
2297.9038,0.003512
2299.7674,0.003642
2301.6311,0.003663
2303.4948,0.003430
2305.3585,0.003662
2307.2221,0.003955
2309.0858,0.003888
2310.9495,0.003808
2312.8131,0.003952
2314.6768,0.004176
2316.5405,0.004311
2318.4041,0.004634
2320.2678,0.004836
2322.1315,0.004567
2323.9951,0.004342
2325.8588,0.004140
2327.7225,0.003731
2329.5861,0.003458
2331.4498,0.003443
2333.3135,0.003577
2335.1772,0.003503
2337.0408,0.003375
2338.9045,0.003997
2340.7682,0.004507
2342.6318,0.004339
2344.4955,0.004236
2346.3592,0.004302
2348.2228,0.003765
2350.0865,0.002817
2351.9502,0.002432
2353.8138,0.002876
2355.6775,0.003667
2357.5412,0.004794
2359.4049,0.005327
2361.2685,0.005055
2363.1322,0.005160
2364.9959,0.005826
2366.8595,0.006127
2368.7232,0.005742
2370.5869,0.005234
2372.4505,0.005019
2374.3142,0.005342
2376.1779,0.005276
2378.0415,0.004775
2379.9052,0.004547
2381.7689,0.004529
2383.6325,0.004423
2385.4962,0.004329
2387.3599,0.004685
2389.2236,0.004898
2391.0872,0.004708
2392.9509,0.004715
2394.8146,0.005071
2396.6782,0.004925
2398.5419,0.004332
2400.4056,0.004445
2402.2692,0.005086
2404.1329,0.005272
2405.9966,0.005252
2407.8602,0.005492
2409.7239,0.005673
2411.5876,0.005570
2413.4512,0.005397
2415.3149,0.005250
2417.1786,0.005098
2419.0423,0.005397
2420.9059,0.005810
2422.7696,0.005623
2424.6333,0.005540
2426.4969,0.005847
2428.3606,0.005876
2430.2243,0.005884
2432.0879,0.006008
2433.9516,0.006035
2435.8153,0.006106
2437.6789,0.006427
2439.5426,0.006594
2441.4063,0.006514
2443.2700,0.006670
2445.1336,0.006849
2446.9973,0.006742
2448.8610,0.006775
2450.7246,0.006916
2452.5883,0.006920
2454.4520,0.007032
2456.3156,0.007065
2458.1793,0.006876
2460.0430,0.006926
2461.9066,0.006826
2463.7703,0.006597
2465.6340,0.006877
2467.4976,0.007261
2469.3613,0.007146
2471.2250,0.007042
2473.0887,0.007375
2474.9523,0.007435
2476.8160,0.007233
2478.6797,0.007006
2480.5433,0.007176
2482.4070,0.007646
2484.2707,0.007593
2486.1343,0.007334
2487.9980,0.007415
2489.8617,0.007533
2491.7253,0.007697
2493.5890,0.007799
2495.4527,0.007806
2497.3164,0.007941
2499.1800,0.008030
2501.0437,0.008112
2502.9074,0.008369
2504.7710,0.008393
2506.6347,0.008294
2508.4984,0.008318
2510.3620,0.008538
2512.2257,0.008597
2514.0894,0.008481
2515.9530,0.008202
2517.8167,0.008393
2519.6804,0.008611
2521.5440,0.008899
2523.4077,0.009156
2525.2714,0.008775
2527.1351,0.008601
2528.9987,0.008639
2530.8624,0.008752
2532.7261,0.008999
2534.5897,0.008875
2536.4534,0.008661
2538.3171,0.008689
2540.1807,0.008939
2542.0444,0.009029
2543.9081,0.009244
2545.7717,0.009605
2547.6354,0.009885
2549.4991,0.009979
2551.3627,0.009970
2553.2264,0.009953
2555.0901,0.009974
2556.9538,0.009914
2558.8174,0.009792
2560.6811,0.010010
2562.5448,0.010129
2564.4084,0.010062
2566.2721,0.010253
2568.1358,0.010547
2569.9994,0.010663
2571.8631,0.010722
2573.7268,0.010867
2575.5904,0.011123
2577.4541,0.011096
2579.3178,0.010773
2581.1815,0.010923
2583.0451,0.011211
2584.9088,0.011477
2586.7725,0.011613
2588.6361,0.011540
2590.4998,0.011416
2592.3635,0.011308
2594.2271,0.011390
2596.0908,0.011819
2597.9545,0.012128
2599.8181,0.012167
2601.6818,0.012347
2603.5455,0.012512
2605.4091,0.012418
2607.2728,0.012629
2609.1365,0.012928
2611.0002,0.013119
2612.8638,0.013331
2614.7275,0.013189
