Wavenumber,Intensity
650.4205,0.087047
652.2841,0.084586
654.1478,0.084225
656.0115,0.084679
657.8751,0.084683
659.7388,0.084208
661.6025,0.083152
663.4661,0.082085
665.3298,0.080727
667.1935,0.080724
669.0571,0.081301
670.9208,0.079843
672.7845,0.078838
674.6481,0.078286
676.5118,0.077684
678.3755,0.076282
680.2392,0.075854
682.1028,0.076551
683.9665,0.076574
685.8302,0.076494
687.6938,0.076760
689.5575,0.075743
691.4212,0.074296
693.2848,0.074604
695.1485,0.075314
697.0122,0.075450
698.8758,0.075107
700.7395,0.073943
702.6032,0.072817
704.4669,0.071896
706.3305,0.070445
708.1942,0.069376
710.0579,0.069005
711.9215,0.068565
713.7852,0.067761
715.6489,0.066812
717.5125,0.066113
719.3762,0.065770
721.2399,0.065360
723.1035,0.064997
724.9672,0.064143
726.8309,0.063078
728.6945,0.062504
730.5582,0.061972
732.4219,0.061408
734.2856,0.061381
736.1492,0.061633
738.0129,0.061337
739.8766,0.060927
741.7402,0.060931
743.6039,0.060415
745.4676,0.059785
747.3312,0.059236
749.1949,0.058551
751.0586,0.058272
752.9222,0.058204
754.7859,0.057818
756.6496,0.057418
758.5132,0.056985
760.3769,0.056463
762.2406,0.056129
764.1043,0.055868
765.9679,0.055457
767.8316,0.055038
769.6953,0.054803
771.5589,0.054744
773.4226,0.054270
775.2863,0.053794
777.1499,0.053676
779.0136,0.053309
780.8773,0.052509
782.7409,0.052208
784.6046,0.052201
786.4683,0.051704
788.3320,0.051092
790.1956,0.050557
792.0593,0.049996
793.9230,0.049905
795.7866,0.049827
797.6503,0.049412
799.5140,0.048897
801.3776,0.048728
803.2413,0.048983
805.1050,0.048963
806.9686,0.048418
808.8323,0.047909
810.6960,0.047819
812.5596,0.048004
814.4233,0.048116
816.2870,0.048097
818.1507,0.047716
820.0143,0.047237
821.8780,0.046702
823.7417,0.045852
825.6053,0.045088
827.4690,0.044642
829.3327,0.044161
831.1963,0.043700
833.0600,0.043221
834.9237,0.042857
836.7873,0.042649
838.6510,0.042258
840.5147,0.041624
842.3784,0.041138
844.2420,0.041087
846.1057,0.041106
847.9694,0.040793
849.8330,0.040551
851.6967,0.040508
853.5604,0.040614
855.4240,0.040699
857.2877,0.040646
859.1514,0.040544
861.0150,0.040615
862.8787,0.040910
864.7424,0.041163
866.6060,0.041195
868.4697,0.041172
870.3334,0.041310
872.1971,0.041495
874.0607,0.041389
875.9244,0.041329
877.7881,0.041352
879.6517,0.041214
881.5154,0.041001
883.3791,0.040710
885.2427,0.040323
887.1064,0.040096
888.9701,0.040196
890.8337,0.040277
892.6974,0.040323
894.5611,0.040415
896.4247,0.040345
898.2884,0.040129
900.1521,0.039931
902.0158,0.039851
903.8794,0.039651
905.7431,0.039523
907.6068,0.039684
909.4704,0.040090
911.3341,0.040456
913.1978,0.040664
915.0614,0.041083
916.9251,0.041581
918.7888,0.041816
920.6524,0.041857
922.5161,0.041924
924.3798,0.042201
926.2435,0.042311
928.1071,0.042267
929.9708,0.042348
931.8345,0.042419
933.6981,0.042473
935.5618,0.042636
937.4255,0.042859
939.2891,0.043026
941.1528,0.043306
943.0165,0.043605
944.8801,0.043785
946.7438,0.044067
948.6075,0.044258
950.4711,0.044374
952.3348,0.044468
954.1985,0.044598
956.0622,0.045075
957.9258,0.045837
959.7895,0.046641
961.6532,0.047593
963.5168,0.048611
965.3805,0.049378
967.2442,0.049905
969.1078,0.050173
970.9715,0.050087
972.8352,0.049957
974.6988,0.049792
976.5625,0.049728
978.4262,0.050063
980.2899,0.050579
982.1535,0.051038
984.0172,0.051539
985.8809,0.052129
987.7445,0.052710
989.6082,0.053338
991.4719,0.054043
993.3355,0.054921
995.1992,0.055984
997.0629,0.056954
998.9265,0.057889
1000.7902,0.058903
1002.6539,0.059942
1004.5175,0.060972
1006.3812,0.062254
1008.2449,0.063761
1010.1086,0.065522
1011.9722,0.067402
1013.8359,0.069273
1015.6996,0.071048
1017.5632,0.072642
1019.4269,0.074034
1021.2906,0.075115
1023.1542,0.075939
1025.0179,0.076637
1026.8816,0.077353
1028.7452,0.078145
1030.6089,0.078864
1032.4726,0.079359
1034.3362,0.079737
1036.1999,0.080071
1038.0636,0.080228
1039.9273,0.080204
1041.7909,0.080171
1043.6546,0.080162
1045.5183,0.080132
1047.3819,0.080109
1049.2456,0.080151
1051.1093,0.080204
1052.9729,0.080297
1054.8366,0.080477
1056.7003,0.080645
1058.5639,0.080671
1060.4276,0.080721
1062.2913,0.080813
1064.1550,0.080796
1066.0186,0.080836
1067.8823,0.080936
1069.7460,0.080969
1071.6096,0.080934
1073.4733,0.080661
1075.3370,0.079980
1077.2006,0.078960
1079.0643,0.077632
1080.9280,0.075959
1082.7916,0.074003
1084.6553,0.071874
1086.5190,0.069818
1088.3826,0.067821
1090.2463,0.065997
1092.1100,0.064545
1093.9737,0.063270
1095.8373,0.062039
1097.7010,0.060989
1099.5647,0.060162
1101.4283,0.059409
1103.2920,0.058744
1105.1557,0.058420
1107.0193,0.058212
1108.8830,0.058028
1110.7467,0.058003
1112.6103,0.058031
1114.4740,0.057964
1116.3377,0.057678
1118.2014,0.057232
1120.0650,0.056729
1121.9287,0.056173
1123.7924,0.055543
1125.6560,0.054822
1127.5197,0.054150
1129.3834,0.053521
1131.2470,0.052812
1133.1107,0.051945
1134.9744,0.051112
1136.8380,0.050383
1138.7017,0.049770
1140.5654,0.049263
1142.4290,0.048932
1144.2927,0.048794
1146.1564,0.048774
1148.0201,0.048912
1149.8837,0.049206
1151.7474,0.049397
1153.6111,0.049432
1155.4747,0.049410
1157.3384,0.049239
1159.2021,0.049046
1161.0657,0.048767
1162.9294,0.048416
1164.7931,0.047981
1166.6567,0.047276
1168.5204,0.046302
1170.3841,0.045233
1172.2477,0.043986
1174.1114,0.042608
1175.9751,0.041219
1177.8388,0.040013
1179.7024,0.039166
1181.5661,0.038583
1183.4298,0.038286
1185.2934,0.038285
1187.1571,0.038329
1189.0208,0.038569
1190.8844,0.039099
1192.7481,0.039655
1194.6118,0.040202
1196.4754,0.040873
1198.3391,0.041695
1200.2028,0.042590
1202.0665,0.043435
1203.9301,0.044187
1205.7938,0.044823
1207.6575,0.045386
1209.5211,0.045957
1211.3848,0.046616
1213.2485,0.047320
1215.1121,0.047987
1216.9758,0.048654
1218.8395,0.049380
1220.7031,0.050107
1222.5668,0.050798
1224.4305,0.051505
1226.2941,0.052152
1228.1578,0.052679
1230.0215,0.053116
1231.8852,0.053393
1233.7488,0.053632
1235.6125,0.053725
1237.4762,0.053654
1239.3398,0.053457
1241.2035,0.053128
1243.0672,0.052693
1244.9308,0.052204
1246.7945,0.051622
1248.6582,0.051041
1250.5218,0.050463
1252.3855,0.049912
1254.2492,0.049321
1256.1129,0.048749
1257.9765,0.048256
1259.8402,0.047771
1261.7039,0.047349
1263.5675,0.046934
1265.4312,0.046548
1267.2949,0.046228
1269.1585,0.046011
1271.0222,0.045802
1272.8859,0.045535
1274.7495,0.045301
1276.6132,0.045283
1278.4769,0.045306
1280.3405,0.045239
1282.2042,0.045094
1284.0679,0.044881
1285.9316,0.044923
1287.7952,0.045000
1289.6589,0.044986
1291.5226,0.045046
1293.3862,0.045081
1295.2499,0.045216
1297.1136,0.045503
1298.9772,0.045701
1300.8409,0.045911
1302.7046,0.046121
1304.5682,0.046306
1306.4319,0.046466
1308.2956,0.046689
1310.1592,0.046845
1312.0229,0.047015
1313.8866,0.047089
1315.7503,0.046854
1317.6139,0.046681
1319.4776,0.046574
1321.3413,0.046186
1323.2049,0.045636
1325.0686,0.045255
1326.9323,0.045158
1328.7959,0.045058
1330.6596,0.044954
1332.5233,0.044903
1334.3869,0.044712
1336.2506,0.044661
1338.1143,0.045056
1339.9780,0.045552
1341.8416,0.045461
1343.7053,0.045152
1345.5690,0.044964
1347.4326,0.044947
1349.2963,0.045044
1351.1600,0.045078
1353.0236,0.045222
1354.8873,0.045524
1356.7510,0.045715
1358.6146,0.045892
1360.4783,0.046653
1362.3420,0.048241
1364.2056,0.049395
1366.0693,0.049835
1367.9330,0.050715
1369.7967,0.051456
1371.6603,0.052054
1373.5240,0.053425
1375.3877,0.054712
1377.2513,0.055103
1379.1150,0.055357
1380.9787,0.055499
1382.8423,0.055529
1384.7060,0.055534
1386.5697,0.056201
1388.4333,0.056869
1390.2970,0.056264
1392.1607,0.055711
1394.0244,0.056117
1395.8880,0.056692
1397.7517,0.056652
1399.6154,0.056716
1401.4790,0.056090
1403.3427,0.055543
1405.2064,0.055386
1407.0700,0.054659
1408.9337,0.053790
1410.7974,0.053210
1412.6610,0.052511
1414.5247,0.051600
1416.3884,0.051006
1418.2520,0.051481
1420.1157,0.051901
1421.9794,0.050944
1423.8431,0.050694
1425.7067,0.050592
1427.5704,0.050390
1429.4341,0.051209
1431.2977,0.051821
1433.1614,0.051815
1435.0251,0.052778
1436.8887,0.055378
1438.7524,0.055792
1440.6161,0.055050
1442.4797,0.055145
1444.3434,0.055214
1446.2071,0.055514
1448.0707,0.055918
1449.9344,0.055470
1451.7981,0.054197
1453.6618,0.053041
1455.5254,0.053084
1457.3891,0.054839
1459.2528,0.053368
1461.1164,0.050884
1462.9801,0.049781
1464.8438,0.050045
1466.7074,0.049104
1468.5711,0.047128
1470.4348,0.045738
1472.2984,0.045931
1474.1621,0.045681
1476.0258,0.044767
1477.8895,0.044061
1479.7531,0.043947
1481.6168,0.044539
1483.4805,0.044855
1485.3441,0.045336
1487.2078,0.047153
1489.0715,0.050243
1490.9351,0.052688
1492.7988,0.053005
1494.6625,0.054166
1496.5261,0.058135
1498.3898,0.061369
1500.2535,0.062426
1502.1171,0.062391
1503.9808,0.062939
1505.8445,0.068462
1507.7082,0.076025
1509.5718,0.075960
1511.4355,0.075809
1513.2992,0.076663
1515.1628,0.077683
1517.0265,0.079072
1518.8902,0.079255
1520.7538,0.080402
1522.6175,0.082502
1524.4812,0.082450
1526.3448,0.082938
1528.2085,0.083184
1530.0722,0.082894
1531.9359,0.082999
1533.7995,0.084061
1535.6632,0.082862
1537.5269,0.080983
1539.3905,0.082157
1541.2542,0.084224
1543.1179,0.082837
1544.9815,0.081192
1546.8452,0.079044
1548.7089,0.076848
1550.5725,0.074990
1552.4362,0.072737
1554.2999,0.070355
1556.1635,0.068249
1558.0272,0.067627
1559.8909,0.067886
1561.7546,0.064416
1563.6182,0.061542
1565.4819,0.059696
1567.3456,0.058284
1569.2092,0.057261
1571.0729,0.055809
1572.9366,0.053860
1574.8002,0.053255
1576.6639,0.053696
1578.5276,0.052548
1580.3912,0.051348
1582.2549,0.050957
1584.1186,0.050767
1585.9822,0.050853
1587.8459,0.051230
1589.7096,0.051948
1591.5733,0.052742
1593.4369,0.053831
1595.3006,0.055379
1597.1643,0.056909
1599.0279,0.058233
1600.8916,0.060014
1602.7553,0.062405
1604.6189,0.064950
1606.4826,0.067387
1608.3463,0.070234
1610.2099,0.073057
1612.0736,0.075126
1613.9373,0.076916
1615.8010,0.080549
1617.6646,0.084736
1619.5283,0.085647
1621.3920,0.086387
1623.2556,0.088981
1625.1193,0.091245
1626.9830,0.092427
1628.8466,0.093330
1630.7103,0.092943
1632.5740,0.092233
1634.4376,0.092440
1636.3013,0.093215
1638.1650,0.091898
1640.0286,0.089825
1641.8923,0.087984
1643.7560,0.086098
1645.6197,0.084857
1647.4833,0.083711
1649.3470,0.081326
1651.2107,0.078535
1653.0743,0.077865
1654.9380,0.076087
1656.8017,0.072446
1658.6653,0.069081
1660.5290,0.066274
1662.3927,0.063776
1664.2563,0.061297
1666.1200,0.058429
1667.9837,0.055770
1669.8474,0.053400
1671.7110,0.051103
1673.5747,0.048597
1675.4384,0.046263
1677.3020,0.043737
1679.1657,0.041198
1681.0294,0.038730
1682.8930,0.036415
1684.7567,0.033996
1686.6204,0.031361
1688.4840,0.028709
1690.3477,0.026086
1692.2114,0.023388
1694.0750,0.020681
1695.9387,0.018006
1697.8024,0.015674
1699.6661,0.013380
1701.5297,0.012001
1703.3934,0.010540
1705.2571,0.009097
1707.1207,0.008334
1708.9844,0.007591
1710.8481,0.006698
1712.7117,0.006104
1714.5754,0.005535
1716.4391,0.005062
1718.3027,0.004932
1720.1664,0.004687
1722.0301,0.004184
1723.8937,0.003955
1725.7574,0.003757
1727.6211,0.003385
1729.4848,0.003197
1731.3484,0.003251
1733.2121,0.003155
1735.0758,0.003789
1736.9394,0.003833
1738.8031,0.003624
1740.6668,0.003718
1742.5304,0.003612
1744.3941,0.003342
1746.2578,0.003018
1748.1214,0.002536
1749.9851,0.002106
1751.8488,0.001662
1753.7125,0.001130
1755.5761,0.000448
1757.4398,0.000011
1759.3035,-0.000308
1761.1671,-0.000795
1763.0308,-0.001075
1764.8945,-0.001114
1766.7581,-0.001217
1768.6218,-0.001124
1770.4855,-0.001342
1772.3491,-0.001288
1774.2128,-0.001072
1776.0765,-0.001079
1777.9401,-0.001213
1779.8038,-0.001356
1781.6675,-0.001331
1783.5312,-0.001363
1785.3948,-0.001357
1787.2585,-0.001346
1789.1222,-0.001659
1790.9858,-0.001851
1792.8495,-0.001498
1794.7132,-0.001289
1796.5768,-0.001506
1798.4405,-0.001726
1800.3042,-0.001731
1802.1678,-0.001498
1804.0315,-0.001432
1805.8952,-0.001428
1807.7589,-0.001442
1809.6225,-0.001573
1811.4862,-0.001689
1813.3499,-0.001622
1815.2135,-0.001616
1817.0772,-0.001645
1818.9409,-0.001443
1820.8045,-0.001152
1822.6682,-0.001305
1824.5319,-0.001578
1826.3955,-0.001457
1828.2592,-0.001489
1830.1229,-0.001217
1831.9865,-0.000786
1833.8502,-0.000934
1835.7139,-0.001237
1837.5776,-0.001430
1839.4412,-0.001387
1841.3049,-0.001352
1843.1686,-0.001081
1845.0322,-0.000581
1846.8959,-0.000452
1848.7596,-0.000653
1850.6232,-0.001008
1852.4869,-0.001274
1854.3506,-0.001123
1856.2142,-0.001105
1858.0779,-0.000914
1859.9416,-0.000678
1861.8052,-0.000761
1863.6689,-0.001044
1865.5326,-0.001055
1867.3963,-0.000852
1869.2599,-0.000566
1871.1236,-0.000480
1872.9873,-0.000616
1874.8509,-0.000452
1876.7146,-0.000333
1878.5783,-0.000603
1880.4419,-0.000613
1882.3056,-0.000638
1884.1693,-0.000908
1886.0329,-0.000878
1887.8966,-0.000549
1889.7603,-0.000344
1891.6240,-0.000200
1893.4876,-0.000096
1895.3513,0.000043
1897.2150,0.000118
1899.0786,0.000127
1900.9423,-0.000003
1902.8060,-0.000083
1904.6696,0.000244
1906.5333,0.000227
1908.3970,-0.000506
1910.2606,-0.000715
1912.1243,-0.000227
1913.9880,-0.000046
1915.8516,-0.000438
1917.7153,-0.000487
1919.5790,0.000141
1921.4427,0.000484
1923.3063,0.000511
1925.1700,0.000703
1927.0337,0.000437
1928.8973,-0.000219
1930.7610,-0.000752
1932.6247,-0.000356
1934.4883,0.000201
1936.3520,0.000074
1938.2157,0.000173
1940.0793,0.000451
1941.9430,0.000411
1943.8067,0.000460
1945.6704,0.000786
1947.5340,0.001239
1949.3977,0.001246
1951.2614,0.000939
1953.1250,0.001142
1954.9887,0.001192
1956.8524,0.000836
1958.7160,0.000825
1960.5797,0.000870
1962.4434,0.001173
1964.3070,0.001739
1966.1707,0.001544
1968.0344,0.001603
1969.8980,0.002351
1971.7617,0.002360
1973.6254,0.002389
1975.4891,0.003355
1977.3527,0.004497
1979.2164,0.004592
1981.0801,0.004673
1982.9437,0.004136
1984.8074,0.002948
1986.6711,0.002581
1988.5347,0.002852
1990.3984,0.002693
1992.2621,0.002706
1994.1257,0.003004
1995.9894,0.002364
1997.8531,0.002472
1999.7167,0.003224
2001.5804,0.002547
2003.4441,0.001855
2005.3078,0.002618
2007.1714,0.003705
2009.0351,0.003181
2010.8988,0.002195
2012.7624,0.002488
2014.6261,0.003420
2016.4898,0.003600
2018.3534,0.003262
2020.2171,0.003777
2022.0808,0.003870
2023.9444,0.002933
2025.8081,0.002893
2027.6718,0.003554
2029.5355,0.004545
2031.3991,0.005140
2033.2628,0.004431
2035.1265,0.004343
2036.9901,0.005134
2038.8538,0.005059
2040.7175,0.004153
2042.5811,0.004541
2044.4448,0.005803
2046.3085,0.006137
2048.1721,0.005865
2050.0358,0.005242
2051.8995,0.004342
2053.7631,0.004151
2055.6268,0.004596
2057.4905,0.004543
2059.3542,0.004288
2061.2178,0.004505
2063.0815,0.005072
2064.9452,0.004744
2066.8088,0.004077
2068.6725,0.004479
2070.5362,0.004691
2072.3998,0.004621
2074.2635,0.005156
2076.1272,0.005090
2077.9908,0.004313
2079.8545,0.004413
2081.7182,0.004776
2083.5819,0.004108
2085.4455,0.003274
2087.3092,0.003471
2089.1729,0.003702
2091.0365,0.003467
2092.9002,0.003106
2094.7639,0.002828
2096.6275,0.002964
2098.4912,0.003426
2100.3549,0.003514
2102.2185,0.003105
2104.0822,0.002937
2105.9459,0.003188
2107.8095,0.003414
2109.6732,0.003477
2111.5369,0.003312
2113.4006,0.003355
2115.2642,0.003781
2117.1279,0.003522
2118.9916,0.002979
2120.8552,0.003069
2122.7189,0.002987
2124.5826,0.002456
2126.4462,0.001854
2128.3099,0.001336
2130.1736,0.001441
2132.0372,0.002048
2133.9009,0.001709
2135.7646,0.001818
2137.6282,0.003427
2139.4919,0.003770
2141.3556,0.002497
2143.2193,0.002068
2145.0829,0.001720
2146.9466,0.001520
2148.8103,0.002612
2150.6739,0.003889
2152.5376,0.003447
2154.4013,0.003085
2156.2649,0.004536
2158.1286,0.005673
2159.9923,0.005930
2161.8559,0.006260
2163.7196,0.006451
2165.5833,0.006857
2167.4470,0.007207
2169.3106,0.006444
2171.1743,0.005145
2173.0380,0.004957
2174.9016,0.004750
2176.7653,0.004798
2178.6290,0.005034
2180.4926,0.005018
2182.3563,0.006204
2184.2200,0.006490
2186.0836,0.005475
2187.9473,0.005239
2189.8110,0.004955
2191.6746,0.004703
2193.5383,0.005433
2195.4020,0.006220
2197.2657,0.005530
2199.1293,0.004376
2200.9930,0.004039
2202.8567,0.004638
2204.7203,0.005171
2206.5840,0.005046
2208.4477,0.004389
2210.3113,0.004065
2212.1750,0.004295
2214.0387,0.004396
2215.9023,0.004917
2217.7660,0.005310
2219.6297,0.004693
2221.4934,0.004617
2223.3570,0.004567
2225.2207,0.004176
2227.0844,0.004229
2228.9480,0.004441
2230.8117,0.004490
2232.6754,0.004333
2234.5390,0.004069
2236.4027,0.003920
2238.2664,0.004497
2240.1300,0.004612
2241.9937,0.004376
2243.8574,0.004160
2245.7210,0.004106
2247.5847,0.004273
2249.4484,0.003819
2251.3121,0.003664
2253.1757,0.003670
2255.0394,0.004102
2256.9031,0.004731
2258.7667,0.004632
2260.6304,0.004416
2262.4941,0.004223
2264.3577,0.003767
2266.2214,0.003634
2268.0851,0.003913
2269.9487,0.004215
2271.8124,0.004096
2273.6761,0.004254
2275.5397,0.004617
2277.4034,0.004738
2279.2671,0.004669
2281.1308,0.004740
2282.9944,0.004853
2284.8581,0.004757
2286.7218,0.004632
2288.5854,0.004479
2290.4491,0.004196
2292.3128,0.003871
2294.1764,0.003671
2296.0401,0.003696
2297.9038,0.003516
2299.7674,0.003292
2301.6311,0.003316
2303.4948,0.003288
2305.3585,0.002777
2307.2221,0.002727
2309.0858,0.003391
2310.9495,0.003817
2312.8131,0.003446
2314.6768,0.003077
2316.5405,0.003499
2318.4041,0.003914
2320.2678,0.003856
2322.1315,0.004202
2323.9951,0.004724
2325.8588,0.003951
2327.7225,0.002519
2329.5861,0.002016
2331.4498,0.002141
2333.3135,0.002319
2335.1772,0.002362
2337.0408,0.002633
2338.9045,0.003073
2340.7682,0.003311
2342.6318,0.003245
2344.4955,0.003053
2346.3592,0.002537
2348.2228,0.002049
2350.0865,0.001696
2351.9502,0.001982
2353.8138,0.002236
2355.6775,0.001895
2357.5412,0.002223
2359.4049,0.002903
2361.2685,0.002937
2363.1322,0.002996
2364.9959,0.003555
2366.8595,0.003572
2368.7232,0.003440
2370.5869,0.003258
2372.4505,0.003153
2374.3142,0.003226
2376.1779,0.003371
2378.0415,0.003306
2379.9052,0.003053
2381.7689,0.002868
2383.6325,0.002927
2385.4962,0.002929
2387.3599,0.002639
2389.2236,0.002442
2391.0872,0.002537
2392.9509,0.002555
2394.8146,0.002638
2396.6782,0.002676
2398.5419,0.002803
2400.4056,0.002886
2402.2692,0.002958
2404.1329,0.002952
2405.9966,0.002831
2407.8602,0.002977
2409.7239,0.002912
2411.5876,0.002607
2413.4512,0.002898
2415.3149,0.003366
2417.1786,0.003246
2419.0423,0.003095
2420.9059,0.003159
2422.7696,0.003397
2424.6333,0.003567
2426.4969,0.003519
2428.3606,0.003577
2430.2243,0.003365
2432.0879,0.003254
2433.9516,0.003532
2435.8153,0.003666
2437.6789,0.003510
2439.5426,0.003402
2441.4063,0.003807
2443.2700,0.003963
2445.1336,0.003547
2446.9973,0.003755
2448.8610,0.004211
2450.7246,0.004188
2452.5883,0.004146
2454.4520,0.004211
2456.3156,0.004213
2458.1793,0.004290
2460.0430,0.003985
2461.9066,0.003851
2463.7703,0.003957
2465.6340,0.003764
2467.4976,0.003660
2469.3613,0.003980
2471.2250,0.004066
2473.0887,0.003919
2474.9523,0.004030
2476.8160,0.004304
2478.6797,0.004354
2480.5433,0.004264
2482.4070,0.004380
2484.2707,0.004457
2486.1343,0.004679
2487.9980,0.004678
2489.8617,0.004679
2491.7253,0.004989
2493.5890,0.004973
2495.4527,0.004963
2497.3164,0.005026
2499.1800,0.004699
2501.0437,0.004258
2502.9074,0.004087
2504.7710,0.004650
2506.6347,0.004987
2508.4984,0.005023
2510.3620,0.005002
2512.2257,0.004847
2514.0894,0.004882
2515.9530,0.005065
2517.8167,0.005000
2519.6804,0.005038
2521.5440,0.005207
2523.4077,0.005077
2525.2714,0.005111
2527.1351,0.005170
2528.9987,0.005296
2530.8624,0.005355
2532.7261,0.005254
2534.5897,0.005218
2536.4534,0.005383
2538.3171,0.005281
2540.1807,0.005127
2542.0444,0.004987
2543.9081,0.005193
2545.7717,0.005404
2547.6354,0.005478
2549.4991,0.005850
2551.3627,0.005867
2553.2264,0.005375
2555.0901,0.005291
2556.9538,0.005693
2558.8174,0.005859
2560.6811,0.006078
2562.5448,0.006273
2564.4084,0.006178
2566.2721,0.006035
2568.1358,0.005867
2569.9994,0.006054
2571.8631,0.006171
2573.7268,0.006101
2575.5904,0.006299
2577.4541,0.006466
2579.3178,0.006466
2581.1815,0.006529
2583.0451,0.006658
2584.9088,0.006693
2586.7725,0.006949
2588.6361,0.006998
2590.4998,0.006668
2592.3635,0.006683
2594.2271,0.006804
2596.0908,0.006764
2597.9545,0.006546
2599.8181,0.006550
2601.6818,0.006985
2603.5455,0.007307
2605.4091,0.007526
2607.2728,0.007513
2609.1365,0.007590
2611.0002,0.007725
2612.8638,0.007487
2614.7275,0.007406
2616.5912,0.007729
2618.4548,0.008055
