Wavenumber,Intensity
650.4205,0.147139
652.2841,0.146442
654.1478,0.142592
656.0115,0.143356
657.8751,0.144460
659.7388,0.143284
661.6025,0.142555
663.4661,0.139585
665.3298,0.136047
667.1935,0.138297
669.0571,0.143019
670.9208,0.136297
672.7845,0.132348
674.6481,0.131559
676.5118,0.131059
678.3755,0.131031
680.2392,0.131835
682.1028,0.129488
683.9665,0.126666
685.8302,0.126779
687.6938,0.126598
689.5575,0.124889
691.4212,0.124096
693.2848,0.124190
695.1485,0.124466
697.0122,0.123916
698.8758,0.122350
700.7395,0.120837
702.6032,0.119999
704.4669,0.119305
706.3305,0.118340
708.1942,0.116038
710.0579,0.113393
711.9215,0.112021
713.7852,0.111274
715.6489,0.110720
717.5125,0.109752
719.3762,0.108118
721.2399,0.106723
723.1035,0.106353
724.9672,0.106654
726.8309,0.105465
728.6945,0.103573
730.5582,0.102940
732.4219,0.102521
734.2856,0.101909
736.1492,0.101474
738.0129,0.100789
739.8766,0.100856
741.7402,0.101298
743.6039,0.100496
745.4676,0.099425
747.3312,0.098388
749.1949,0.096649
751.0586,0.095548
752.9222,0.095098
754.7859,0.094093
756.6496,0.093248
758.5132,0.093156
760.3769,0.092653
762.2406,0.091854
764.1043,0.091623
765.9679,0.091377
767.8316,0.090568
769.6953,0.089321
771.5589,0.088742
773.4226,0.088772
775.2863,0.088452
777.1499,0.087796
779.0136,0.086980
780.8773,0.086226
782.7409,0.085402
784.6046,0.084579
786.4683,0.083670
788.3320,0.082581
790.1956,0.081758
792.0593,0.081007
793.9230,0.080390
795.7866,0.079859
797.6503,0.079105
799.5140,0.078467
801.3776,0.078376
803.2413,0.078099
805.1050,0.077367
806.9686,0.076711
808.8323,0.076230
810.6960,0.075634
812.5596,0.075032
814.4233,0.074397
816.2870,0.073590
818.1507,0.073069
820.0143,0.072752
821.8780,0.072018
823.7417,0.071181
825.6053,0.070317
827.4690,0.069491
829.3327,0.068898
831.1963,0.068387
833.0600,0.067755
834.9237,0.067162
836.7873,0.066544
838.6510,0.065694
840.5147,0.064913
842.3784,0.064402
844.2420,0.063901
846.1057,0.063492
847.9694,0.063291
849.8330,0.063291
851.6967,0.062945
853.5604,0.062245
855.4240,0.062014
857.2877,0.061868
859.1514,0.061302
861.0150,0.060996
862.8787,0.061040
864.7424,0.060968
866.6060,0.061070
868.4697,0.061535
870.3334,0.061958
872.1971,0.062057
874.0607,0.061621
875.9244,0.061118
877.7881,0.060810
879.6517,0.060336
881.5154,0.059819
883.3791,0.059343
885.2427,0.058654
887.1064,0.058217
888.9701,0.058155
890.8337,0.058012
892.6974,0.058060
894.5611,0.058133
896.4247,0.057694
898.2884,0.057334
900.1521,0.057299
902.0158,0.057129
903.8794,0.056768
905.7431,0.056817
907.6068,0.057236
909.4704,0.057480
911.3341,0.057768
913.1978,0.058395
915.0614,0.058951
916.9251,0.059514
918.7888,0.060333
920.6524,0.061045
922.5161,0.061448
924.3798,0.061622
926.2435,0.061526
928.1071,0.061112
929.9708,0.060594
931.8345,0.060223
933.6981,0.060091
935.5618,0.059928
937.4255,0.059849
939.2891,0.060035
941.1528,0.060469
943.0165,0.060845
944.8801,0.060949
946.7438,0.061112
948.6075,0.061337
950.4711,0.061494
952.3348,0.061654
954.1985,0.061926
956.0622,0.062557
957.9258,0.063601
959.7895,0.064888
961.6532,0.066377
963.5168,0.067881
965.3805,0.069432
967.2442,0.070869
969.1078,0.071802
970.9715,0.072405
972.8352,0.073158
974.6988,0.074211
976.5625,0.075334
978.4262,0.076434
980.2899,0.077444
982.1535,0.078475
984.0172,0.079462
985.8809,0.080349
987.7445,0.081317
989.6082,0.082388
991.4719,0.083478
993.3355,0.084536
995.1992,0.085620
997.0629,0.086904
998.9265,0.088206
1000.7902,0.089387
1002.6539,0.090670
1004.5175,0.092188
1006.3812,0.094010
1008.2449,0.096152
1010.1086,0.098542
1011.9722,0.101011
1013.8359,0.103534
1015.6996,0.105912
1017.5632,0.107922
1019.4269,0.109442
1021.2906,0.110574
1023.1542,0.111391
1025.0179,0.112035
1026.8816,0.112830
1028.7452,0.113549
1030.6089,0.114104
1032.4726,0.114739
1034.3362,0.115206
1036.1999,0.115500
1038.0636,0.115821
1039.9273,0.116157
1041.7909,0.116314
1043.6546,0.116319
1045.5183,0.116256
1047.3819,0.116104
1049.2456,0.116000
1051.1093,0.115878
1052.9729,0.115693
1054.8366,0.115458
1056.7003,0.115364
1058.5639,0.115484
1060.4276,0.115585
1062.2913,0.115665
1064.1550,0.115881
1066.0186,0.116313
1067.8823,0.116735
1069.7460,0.117063
1071.6096,0.117158
1073.4733,0.116968
1075.3370,0.116400
1077.2006,0.115443
1079.0643,0.114003
1080.9280,0.112061
1082.7916,0.109846
1084.6553,0.107512
1086.5190,0.105230
1088.3826,0.103086
1090.2463,0.101170
1092.1100,0.099755
1093.9737,0.098640
1095.8373,0.097638
1097.7010,0.096843
1099.5647,0.096256
1101.4283,0.095816
1103.2920,0.095429
1105.1557,0.095228
1107.0193,0.095317
1108.8830,0.095424
1110.7467,0.095433
1112.6103,0.095447
1114.4740,0.095352
1116.3377,0.095072
1118.2014,0.094697
1120.0650,0.094198
1121.9287,0.093732
1123.7924,0.093171
1125.6560,0.092424
1127.5197,0.091666
1129.3834,0.090843
1131.2470,0.089859
1133.1107,0.088853
1134.9744,0.087920
1136.8380,0.086929
1138.7017,0.085769
1140.5654,0.084810
1142.4290,0.084155
1144.2927,0.083623
1146.1564,0.083322
1148.0201,0.083148
1149.8837,0.082954
1151.7474,0.082697
1153.6111,0.082411
1155.4747,0.082112
1157.3384,0.081691
1159.2021,0.081103
1161.0657,0.080372
1162.9294,0.079465
1164.7931,0.078431
1166.6567,0.077234
1168.5204,0.075809
1170.3841,0.074375
1172.2477,0.072859
1174.1114,0.071228
1175.9751,0.069685
1177.8388,0.068546
1179.7024,0.067836
1181.5661,0.067521
1183.4298,0.067552
1185.2934,0.067841
1187.1571,0.068268
1189.0208,0.068653
1190.8844,0.069055
1192.7481,0.069583
1194.6118,0.070293
1196.4754,0.071140
1198.3391,0.072031
1200.2028,0.072987
1202.0665,0.073928
1203.9301,0.074674
1205.7938,0.075160
1207.6575,0.075465
1209.5211,0.075601
1211.3848,0.075836
1213.2485,0.076284
1215.1121,0.076929
1216.9758,0.077850
1218.8395,0.078921
1220.7031,0.080017
1222.5668,0.081321
1224.4305,0.082784
1226.2941,0.084240
1228.1578,0.085589
1230.0215,0.086831
1231.8852,0.087954
1233.7488,0.088902
1235.6125,0.089712
1237.4762,0.090240
1239.3398,0.090448
1241.2035,0.090441
1243.0672,0.090145
1244.9308,0.089582
1246.7945,0.088755
1248.6582,0.087827
1250.5218,0.087011
1252.3855,0.086279
1254.2492,0.085452
1256.1129,0.084669
1257.9765,0.084064
1259.8402,0.083584
1261.7039,0.083136
1263.5675,0.082761
1265.4312,0.082586
1267.2949,0.082405
1269.1585,0.082175
1271.0222,0.081984
1272.8859,0.081787
1274.7495,0.081676
1276.6132,0.081540
1278.4769,0.081328
1280.3405,0.081346
1282.2042,0.081397
1284.0679,0.081382
1285.9316,0.081463
1287.7952,0.081771
1289.6589,0.082052
1291.5226,0.082292
1293.3862,0.082620
1295.2499,0.083298
1297.1136,0.084013
1298.9772,0.084716
1300.8409,0.085617
1302.7046,0.086481
1304.5682,0.087215
1306.4319,0.088027
1308.2956,0.088903
1310.1592,0.089796
1312.0229,0.090752
1313.8866,0.091400
1315.7503,0.091611
1317.6139,0.092139
1319.4776,0.092508
1321.3413,0.092404
1323.2049,0.092466
1325.0686,0.092794
1326.9323,0.093144
1328.7959,0.093407
1330.6596,0.093677
1332.5233,0.093751
1334.3869,0.093403
1336.2506,0.093541
1338.1143,0.094504
1339.9780,0.095310
1341.8416,0.094631
1343.7053,0.093740
1345.5690,0.093259
1347.4326,0.092825
1349.2963,0.092504
1351.1600,0.092314
1353.0236,0.092307
1354.8873,0.092470
1356.7510,0.092285
1358.6146,0.092088
1360.4783,0.093322
1362.3420,0.096116
1364.2056,0.097711
1366.0693,0.098447
1367.9330,0.100291
1369.7967,0.101838
1371.6603,0.103453
1373.5240,0.106838
1375.3877,0.109104
1377.2513,0.109903
1379.1150,0.111819
1380.9787,0.113534
1382.8423,0.114764
1384.7060,0.116392
1386.5697,0.120179
1388.4333,0.122692
1390.2970,0.122150
1392.1607,0.123172
1394.0244,0.126753
1395.8880,0.128939
1397.7517,0.130061
1399.6154,0.131366
1401.4790,0.129920
1403.3427,0.129981
1405.2064,0.130334
1407.0700,0.128334
1408.9337,0.126148
1410.7974,0.124275
1412.6610,0.121164
1414.5247,0.117656
1416.3884,0.115723
1418.2520,0.116831
1420.1157,0.114876
1421.9794,0.110946
1423.8431,0.109796
1425.7067,0.108181
1427.5704,0.107550
1429.4341,0.108596
1431.2977,0.108172
1433.1614,0.107331
1435.0251,0.110299
1436.8887,0.115323
1438.7524,0.113975
1440.6161,0.112760
1442.4797,0.113054
1444.3434,0.112962
1446.2071,0.113638
1448.0707,0.114407
1449.9344,0.112361
1451.7981,0.109740
1453.6618,0.107646
1455.5254,0.109566
1457.3891,0.112990
1459.2528,0.107053
1461.1164,0.101704
1462.9801,0.100359
1464.8438,0.100825
1466.7074,0.097587
1468.5711,0.093888
1470.4348,0.093230
1472.2984,0.095609
1474.1621,0.094631
1476.0258,0.092491
1477.8895,0.090528
1479.7531,0.089581
1481.6168,0.089845
1483.4805,0.089503
1485.3441,0.090539
1487.2078,0.094222
1489.0715,0.100033
1490.9351,0.103131
1492.7988,0.102130
1494.6625,0.105230
1496.5261,0.113151
1498.3898,0.117654
1500.2535,0.118145
1502.1171,0.117329
1503.9808,0.120117
1505.8445,0.133847
1507.7082,0.145245
1509.5718,0.142144
1511.4355,0.142606
1513.2992,0.144436
1515.1628,0.147563
1517.0265,0.150591
1518.8902,0.151436
1520.7538,0.157102
1522.6175,0.159392
1524.4812,0.158404
1526.3448,0.160561
1528.2085,0.159915
1530.0722,0.158936
1531.9359,0.161440
1533.7995,0.163591
1535.6632,0.158726
1537.5269,0.159351
1539.3905,0.167333
1541.2542,0.168790
1543.1179,0.164972
1544.9815,0.162087
1546.8452,0.157799
1548.7089,0.155904
1550.5725,0.153000
1552.4362,0.149254
1554.2999,0.146303
1556.1635,0.144508
1558.0272,0.151587
1559.8909,0.149129
1561.7546,0.137890
1563.6182,0.134178
1565.4819,0.131381
1567.3456,0.129225
1569.2092,0.129049
1571.0729,0.124490
1572.9366,0.120787
1574.8002,0.122288
1576.6639,0.123064
1578.5276,0.118818
1580.3912,0.116972
1582.2549,0.116572
1584.1186,0.116469
1585.9822,0.116571
1587.8459,0.116896
1589.7096,0.117630
1591.5733,0.118918
1593.4369,0.120632
1595.3006,0.122289
1597.1643,0.123624
1599.0279,0.125535
1600.8916,0.128239
1602.7553,0.131313
1604.6189,0.134368
1606.4826,0.137899
1608.3463,0.142018
1610.2099,0.145007
1612.0736,0.146981
1613.9373,0.150357
1615.8010,0.157626
1617.6646,0.160872
1619.5283,0.159634
1621.3920,0.162517
1623.2556,0.166994
1625.1193,0.167447
1626.9830,0.168279
1628.8466,0.167784
1630.7103,0.165146
1632.5740,0.164465
1634.4376,0.168231
1636.3013,0.167460
1638.1650,0.160491
1640.0286,0.155552
1641.8923,0.151526
1643.7560,0.148971
1645.6197,0.148605
1647.4833,0.143821
1649.3470,0.137374
1651.2107,0.138621
1653.0743,0.142427
1654.9380,0.132133
1656.8017,0.125186
1658.6653,0.121109
1660.5290,0.118577
1662.3927,0.115712
1664.2563,0.110095
1666.1200,0.105461
1667.9837,0.103291
1669.8474,0.099625
1671.7110,0.094218
1673.5747,0.090878
1675.4384,0.087250
1677.3020,0.081335
1679.1657,0.077250
1681.0294,0.073582
1682.8930,0.071795
1684.7567,0.067445
1686.6204,0.060948
1688.4840,0.056829
1690.3477,0.052433
1692.2114,0.047893
1694.0750,0.044479
1695.9387,0.040397
1697.8024,0.035911
1699.6661,0.033187
1701.5297,0.029073
1703.3934,0.026298
1705.2571,0.024484
1707.1207,0.022208
1708.9844,0.020318
1710.8481,0.018907
1712.7117,0.017806
1714.5754,0.017043
1716.4391,0.016667
1718.3027,0.015541
1720.1664,0.014251
1722.0301,0.013551
1723.8937,0.012960
1725.7574,0.012219
1727.6211,0.011533
1729.4848,0.010951
1731.3484,0.010686
1733.2121,0.010538
1735.0758,0.009942
1736.9394,0.009149
1738.8031,0.008837
1740.6668,0.008634
1742.5304,0.008331
1744.3941,0.007974
1746.2578,0.007664
1748.1214,0.007324
1749.9851,0.006937
1751.8488,0.006568
1753.7125,0.006210
1755.5761,0.005877
1757.4398,0.005634
1759.3035,0.005289
1761.1671,0.005043
1763.0308,0.004863
1764.8945,0.004645
1766.7581,0.004532
1768.6218,0.004449
1770.4855,0.004297
1772.3491,0.003975
1774.2128,0.003602
1776.0765,0.003492
1777.9401,0.003603
1779.8038,0.003606
1781.6675,0.003384
1783.5312,0.003362
1785.3948,0.003378
1787.2585,0.003120
1789.1222,0.002956
1790.9858,0.002850
1792.8495,0.002727
1794.7132,0.002726
1796.5768,0.002544
1798.4405,0.002388
1800.3042,0.002466
1802.1678,0.002478
1804.0315,0.002224
1805.8952,0.001998
1807.7589,0.001925
1809.6225,0.001859
1811.4862,0.001756
1813.3499,0.001536
1815.2135,0.001416
1817.0772,0.001588
1818.9409,0.001777
1820.8045,0.001867
1822.6682,0.001658
1824.5319,0.001292
1826.3955,0.001430
1828.2592,0.001820
1830.1229,0.001757
1831.9865,0.001496
1833.8502,0.001501
1835.7139,0.001553
1837.5776,0.001611
1839.4412,0.001532
1841.3049,0.001406
1843.1686,0.001500
1845.0322,0.001386
1846.8959,0.001315
1848.7596,0.001309
1850.6232,0.001567
1852.4869,0.001635
1854.3506,0.001531
1856.2142,0.001558
1858.0779,0.001401
1859.9416,0.001336
1861.8052,0.001511
1863.6689,0.001631
1865.5326,0.001432
1867.3963,0.001001
1869.2599,0.000977
1871.1236,0.001448
1872.9873,0.001862
1874.8509,0.001726
1876.7146,0.001751
1878.5783,0.001874
1880.4419,0.001399
1882.3056,0.001093
1884.1693,0.001321
1886.0329,0.001370
1887.8966,0.001092
1889.7603,0.001503
1891.6240,0.001891
1893.4876,0.001881
1895.3513,0.001614
1897.2150,0.001494
1899.0786,0.001657
1900.9423,0.001956
1902.8060,0.002237
1904.6696,0.001919
1906.5333,0.001579
1908.3970,0.001550
1910.2606,0.001370
1912.1243,0.001379
1913.9880,0.001723
1915.8516,0.001785
1917.7153,0.002058
1919.5790,0.002269
1921.4427,0.002038
1923.3063,0.001723
1925.1700,0.001328
1927.0337,0.001530
1928.8973,0.002183
1930.7610,0.002294
1932.6247,0.001786
1934.4883,0.001353
1936.3520,0.001391
1938.2157,0.001525
1940.0793,0.001671
1941.9430,0.001744
1943.8067,0.002135
1945.6704,0.002248
1947.5340,0.002013
1949.3977,0.002332
1951.2614,0.003168
1953.1250,0.003149
1954.9887,0.002163
1956.8524,0.001588
1958.7160,0.002810
1960.5797,0.003469
1962.4434,0.002904
1964.3070,0.002863
1966.1707,0.003101
1968.0344,0.003088
1969.8980,0.003020
1971.7617,0.003232
1973.6254,0.003675
1975.4891,0.003456
1977.3527,0.003895
1979.2164,0.004650
1981.0801,0.004056
1982.9437,0.003993
1984.8074,0.003192
1986.6711,0.002761
1988.5347,0.003689
1990.3984,0.003378
1992.2621,0.002669
1994.1257,0.003265
1995.9894,0.003861
1997.8531,0.003360
1999.7167,0.003029
2001.5804,0.002628
2003.4441,0.002529
2005.3078,0.003369
2007.1714,0.004177
2009.0351,0.004720
2010.8988,0.004782
2012.7624,0.004317
2014.6261,0.003226
2016.4898,0.003387
2018.3534,0.004379
2020.2171,0.004817
2022.0808,0.004699
2023.9444,0.004960
2025.8081,0.005389
2027.6718,0.004958
2029.5355,0.004888
2031.3991,0.005964
2033.2628,0.006238
2035.1265,0.006069
2036.9901,0.006582
2038.8538,0.006593
2040.7175,0.006235
2042.5811,0.007433
2044.4448,0.008315
2046.3085,0.008292
2048.1721,0.009126
2050.0358,0.009139
2051.8995,0.007748
2053.7631,0.007929
2055.6268,0.009099
2057.4905,0.009124
2059.3542,0.008348
2061.2178,0.008057
2063.0815,0.008568
2064.9452,0.008443
2066.8088,0.008530
2068.6725,0.009206
2070.5362,0.009033
2072.3998,0.009031
2074.2635,0.008903
2076.1272,0.008380
2077.9908,0.008167
2079.8545,0.007769
2081.7182,0.007350
2083.5819,0.007137
2085.4455,0.006686
2087.3092,0.006140
2089.1729,0.006072
2091.0365,0.006363
2092.9002,0.006800
2094.7639,0.006950
2096.6275,0.006681
2098.4912,0.006945
2100.3549,0.007076
2102.2185,0.006769
2104.0822,0.007063
2105.9459,0.007620
2107.8095,0.007531
2109.6732,0.007104
2111.5369,0.006757
2113.4006,0.006684
2115.2642,0.007135
2117.1279,0.007262
2118.9916,0.006638
2120.8552,0.006190
2122.7189,0.006298
2124.5826,0.006461
2126.4462,0.006734
2128.3099,0.006733
2130.1736,0.005873
2132.0372,0.005027
2133.9009,0.005400
2135.7646,0.005822
2137.6282,0.005789
2139.4919,0.006448
2141.3556,0.006658
2143.2193,0.006099
2145.0829,0.005944
2146.9466,0.006464
2148.8103,0.006670
2150.6739,0.006504
2152.5376,0.005694
2154.4013,0.005411
2156.2649,0.006935
2158.1286,0.008047
2159.9923,0.008731
2161.8559,0.008307
2163.7196,0.006810
2165.5833,0.006881
2167.4470,0.007515
2169.3106,0.008244
2171.1743,0.009154
2173.0380,0.008875
2174.9016,0.007553
2176.7653,0.007851
2178.6290,0.009383
2180.4926,0.009927
2182.3563,0.009577
2184.2200,0.009298
2186.0836,0.009125
2187.9473,0.008905
2189.8110,0.008330
2191.6746,0.007574
2193.5383,0.007542
2195.4020,0.008285
2197.2657,0.008733
2199.1293,0.008335
2200.9930,0.008242
2202.8567,0.008498
2204.7203,0.007960
2206.5840,0.007771
2208.4477,0.008286
2210.3113,0.008714
2212.1750,0.008561
2214.0387,0.007851
2215.9023,0.007505
2217.7660,0.007698
2219.6297,0.007958
2221.4934,0.008169
2223.3570,0.008013
2225.2207,0.007490
2227.0844,0.007776
2228.9480,0.008317
2230.8117,0.008114
2232.6754,0.007779
2234.5390,0.007548
2236.4027,0.007291
2238.2664,0.007461
2240.1300,0.007836
2241.9937,0.007923
2243.8574,0.007927
2245.7210,0.007534
2247.5847,0.007614
2249.4484,0.008021
2251.3121,0.007997
2253.1757,0.007687
2255.0394,0.007349
2256.9031,0.007644
2258.7667,0.007890
2260.6304,0.008058
2262.4941,0.008378
2264.3577,0.008381
2266.2214,0.008610
2268.0851,0.008632
2269.9487,0.008367
2271.8124,0.008606
2273.6761,0.008398
2275.5397,0.007800
2277.4034,0.007751
2279.2671,0.008038
2281.1308,0.008348
2282.9944,0.008407
2284.8581,0.008233
2286.7218,0.008093
2288.5854,0.008180
2290.4491,0.008414
2292.3128,0.008315
2294.1764,0.008129
2296.0401,0.008122
2297.9038,0.007928
2299.7674,0.007718
2301.6311,0.007808
2303.4948,0.007706
2305.3585,0.007665
2307.2221,0.008054
2309.0858,0.008128
2310.9495,0.008010
2312.8131,0.008239
2314.6768,0.008423
2316.5405,0.008481
2318.4041,0.008627
2320.2678,0.008602
2322.1315,0.008693
2323.9951,0.008840
2325.8588,0.008692
2327.7225,0.008349
2329.5861,0.007856
2331.4498,0.007798
2333.3135,0.008036
2335.1772,0.007983
2337.0408,0.008052
2338.9045,0.008450
2340.7682,0.008780
2342.6318,0.009092
2344.4955,0.009083
2346.3592,0.008176
2348.2228,0.007266
2350.0865,0.006893
2351.9502,0.007067
2353.8138,0.007501
2355.6775,0.007843
2357.5412,0.008526
2359.4049,0.009023
2361.2685,0.009186
2363.1322,0.009225
2364.9959,0.009339
2366.8595,0.009650
2368.7232,0.009881
2370.5869,0.009644
2372.4505,0.009391
2374.3142,0.009420
2376.1779,0.009329
2378.0415,0.009102
2379.9052,0.008851
2381.7689,0.008538
2383.6325,0.008279
2385.4962,0.008399
2387.3599,0.008581
2389.2236,0.008479
2391.0872,0.008372
2392.9509,0.008616
2394.8146,0.008961
2396.6782,0.009046
2398.5419,0.009024
2400.4056,0.008824
2402.2692,0.008745
2404.1329,0.008766
2405.9966,0.008889
2407.8602,0.009156
2409.7239,0.009340
2411.5876,0.009321
2413.4512,0.009211
2415.3149,0.009331
2417.1786,0.009596
2419.0423,0.009633
2420.9059,0.009799
2422.7696,0.010062
2424.6333,0.009939
2426.4969,0.009981
2428.3606,0.010375
2430.2243,0.010390
2432.0879,0.010114
2433.9516,0.010201
2435.8153,0.010495
2437.6789,0.010510
2439.5426,0.010527
2441.4063,0.010622
2443.2700,0.010768
2445.1336,0.011045
2446.9973,0.010926
2448.8610,0.010766
2450.7246,0.010856
2452.5883,0.010958
2454.4520,0.011170
2456.3156,0.011365
2458.1793,0.011369
2460.0430,0.011195
2461.9066,0.011107
2463.7703,0.011419
2465.6340,0.011618
2467.4976,0.011592
2469.3613,0.011517
2471.2250,0.011487
2473.0887,0.011537
2474.9523,0.011701
2476.8160,0.011722
2478.6797,0.011761
2480.5433,0.011831
2482.4070,0.011717
2484.2707,0.011868
2486.1343,0.012267
2487.9980,0.012422
2489.8617,0.012376
2491.7253,0.012161
2493.5890,0.012194
2495.4527,0.012424
2497.3164,0.012281
2499.1800,0.012617
2501.0437,0.013088
2502.9074,0.012863
2504.7710,0.012786
2506.6347,0.012987
2508.4984,0.013087
2510.3620,0.013160
2512.2257,0.013181
2514.0894,0.013267
2515.9530,0.013447
2517.8167,0.013711
2519.6804,0.013801
2521.5440,0.013756
2523.4077,0.013737
2525.2714,0.013644
2527.1351,0.013704
2528.9987,0.013864
2530.8624,0.013627
2532.7261,0.013354
2534.5897,0.013687
2536.4534,0.013932
2538.3171,0.014068
2540.1807,0.014296
2542.0444,0.014406
2543.9081,0.014570
2545.7717,0.014603
2547.6354,0.014591
2549.4991,0.014736
2551.3627,0.014872
2553.2264,0.014926
2555.0901,0.014993
2556.9538,0.014907
2558.8174,0.014761
2560.6811,0.014937
2562.5448,0.015201
2564.4084,0.015151
2566.2721,0.015350
2568.1358,0.015466
2569.9994,0.015198
2571.8631,0.015143
2573.7268,0.015604
2575.5904,0.016107
2577.4541,0.016182
2579.3178,0.016092
2581.1815,0.016084
2583.0451,0.016213
2584.9088,0.016326
2586.7725,0.016401
2588.6361,0.016728
2590.4998,0.016808
2592.3635,0.016754
2594.2271,0.016666
2596.0908,0.016940
2597.9545,0.017271
2599.8181,0.017533
2601.6818,0.017847
2603.5455,0.018022
2605.4091,0.018041
2607.2728,0.018197
2609.1365,0.018243
2611.0002,0.018118
2612.8638,0.018231
2614.7275,0.018464
2616.5912,0.018594
2618.4548,0.018721
2620.3185,0.018848
2622.1822,0.018933
2624.0458,0.019288
2625.9095,0.019462
