Wavenumber,Intensity
650.4205,0.029111
652.2841,0.029973
654.1478,0.030885
656.0115,0.031092
657.8751,0.030811
659.7388,0.028977
661.6025,0.028621
663.4661,0.030096
665.3298,0.032235
667.1935,0.032341
669.0571,0.027665
670.9208,0.027107
672.7845,0.027572
674.6481,0.027459
676.5118,0.027539
678.3755,0.028133
680.2392,0.027385
682.1028,0.025883
683.9665,0.027411
685.8302,0.028627
687.6938,0.027168
689.5575,0.026251
691.4212,0.026273
693.2848,0.026413
695.1485,0.026405
697.0122,0.026113
698.8758,0.025338
700.7395,0.024844
702.6032,0.025058
704.4669,0.024875
706.3305,0.024544
708.1942,0.024672
710.0579,0.024285
711.9215,0.023649
713.7852,0.023590
715.6489,0.023610
717.5125,0.023696
719.3762,0.023146
721.2399,0.022494
723.1035,0.022299
724.9672,0.021958
726.8309,0.021740
728.6945,0.021800
730.5582,0.021985
732.4219,0.021698
734.2856,0.020952
736.1492,0.020715
738.0129,0.021046
739.8766,0.021068
741.7402,0.020656
743.6039,0.020431
745.4676,0.020426
747.3312,0.020031
749.1949,0.019491
751.0586,0.019389
752.9222,0.019807
754.7859,0.020192
756.6496,0.020297
758.5132,0.020176
760.3769,0.019734
762.2406,0.019337
764.1043,0.019179
765.9679,0.019089
767.8316,0.019175
769.6953,0.019249
771.5589,0.019336
773.4226,0.019154
775.2863,0.018585
777.1499,0.018299
779.0136,0.018205
780.8773,0.018132
782.7409,0.018270
784.6046,0.018430
786.4683,0.017961
788.3320,0.017349
790.1956,0.017241
792.0593,0.017206
793.9230,0.017086
795.7866,0.017184
797.6503,0.017084
799.5140,0.016949
801.3776,0.017236
803.2413,0.017449
805.1050,0.017695
806.9686,0.017518
808.8323,0.017124
810.6960,0.017116
812.5596,0.016979
814.4233,0.016945
816.2870,0.016992
818.1507,0.017022
820.0143,0.017125
821.8780,0.016836
823.7417,0.016103
825.6053,0.015322
827.4690,0.015120
829.3327,0.015204
831.1963,0.015214
833.0600,0.015223
834.9237,0.015024
836.7873,0.014905
838.6510,0.014714
840.5147,0.014384
842.3784,0.014171
844.2420,0.014084
846.1057,0.014262
847.9694,0.014415
849.8330,0.014364
851.6967,0.014177
853.5604,0.013973
855.4240,0.013998
857.2877,0.014063
859.1514,0.014235
861.0150,0.014438
862.8787,0.014544
864.7424,0.014696
866.6060,0.014788
868.4697,0.014989
870.3334,0.015356
872.1971,0.015325
874.0607,0.015112
875.9244,0.015008
877.7881,0.015019
879.6517,0.015147
881.5154,0.015041
883.3791,0.014712
885.2427,0.014562
887.1064,0.014576
888.9701,0.014529
890.8337,0.014610
892.6974,0.014634
894.5611,0.014540
896.4247,0.014479
898.2884,0.014489
900.1521,0.014533
902.0158,0.014489
903.8794,0.014440
905.7431,0.014475
907.6068,0.014601
909.4704,0.014737
911.3341,0.014836
913.1978,0.014984
915.0614,0.015121
916.9251,0.015243
918.7888,0.015415
920.6524,0.015533
922.5161,0.015584
924.3798,0.015658
926.2435,0.015718
928.1071,0.015765
929.9708,0.015862
931.8345,0.016028
933.6981,0.016240
935.5618,0.016485
937.4255,0.016748
939.2891,0.017160
941.1528,0.017686
943.0165,0.018181
944.8801,0.018574
946.7438,0.018937
948.6075,0.019209
950.4711,0.019444
952.3348,0.019861
954.1985,0.020310
956.0622,0.020749
957.9258,0.021311
959.7895,0.021985
961.6532,0.022806
963.5168,0.023636
965.3805,0.024261
967.2442,0.024662
969.1078,0.025007
970.9715,0.025192
972.8352,0.025155
974.6988,0.025196
976.5625,0.025366
978.4262,0.025626
980.2899,0.026073
982.1535,0.026542
984.0172,0.027058
985.8809,0.027655
987.7445,0.028174
989.6082,0.028688
991.4719,0.029377
993.3355,0.030107
995.1992,0.030802
997.0629,0.031538
998.9265,0.032246
1000.7902,0.032828
1002.6539,0.033320
1004.5175,0.033943
1006.3812,0.034719
1008.2449,0.035601
1010.1086,0.036679
1011.9722,0.037665
1013.8359,0.038557
1015.6996,0.039380
1017.5632,0.040074
1019.4269,0.040606
1021.2906,0.040900
1023.1542,0.040984
1025.0179,0.041148
1026.8816,0.041415
1028.7452,0.041608
1030.6089,0.041695
1032.4726,0.041715
1034.3362,0.041630
1036.1999,0.041416
1038.0636,0.041093
1039.9273,0.040869
1041.7909,0.040615
1043.6546,0.040322
1045.5183,0.040108
1047.3819,0.039957
1049.2456,0.039780
1051.1093,0.039592
1052.9729,0.039473
1054.8366,0.039362
1056.7003,0.039317
1058.5639,0.039314
1060.4276,0.039213
1062.2913,0.039112
1064.1550,0.039085
1066.0186,0.039012
1067.8823,0.038877
1069.7460,0.038744
1071.6096,0.038623
1073.4733,0.038310
1075.3370,0.037847
1077.2006,0.037335
1079.0643,0.036633
1080.9280,0.035721
1082.7916,0.034709
1084.6553,0.033661
1086.5190,0.032532
1088.3826,0.031466
1090.2463,0.030546
1092.1100,0.029786
1093.9737,0.029110
1095.8373,0.028457
1097.7010,0.027822
1099.5647,0.027266
1101.4283,0.026872
1103.2920,0.026521
1105.1557,0.026102
1107.0193,0.025729
1108.8830,0.025514
1110.7467,0.025402
1112.6103,0.025211
1114.4740,0.024955
1116.3377,0.024608
1118.2014,0.024228
1120.0650,0.023797
1121.9287,0.023277
1123.7924,0.022838
1125.6560,0.022434
1127.5197,0.021904
1129.3834,0.021367
1131.2470,0.020856
1133.1107,0.020207
1134.9744,0.019560
1136.8380,0.018976
1138.7017,0.018332
1140.5654,0.017787
1142.4290,0.017346
1144.2927,0.016971
1146.1564,0.016762
1148.0201,0.016727
1149.8837,0.016726
1151.7474,0.016659
1153.6111,0.016610
1155.4747,0.016502
1157.3384,0.016302
1159.2021,0.016097
1161.0657,0.015919
1162.9294,0.015693
1164.7931,0.015321
1166.6567,0.014866
1168.5204,0.014333
1170.3841,0.013677
1172.2477,0.012848
1174.1114,0.011994
1175.9751,0.011164
1177.8388,0.010401
1179.7024,0.009809
1181.5661,0.009416
1183.4298,0.009231
1185.2934,0.009158
1187.1571,0.009153
1189.0208,0.009221
1190.8844,0.009318
1192.7481,0.009497
1194.6118,0.009679
1196.4754,0.010008
1198.3391,0.010402
1200.2028,0.010684
1202.0665,0.011025
1203.9301,0.011435
1205.7938,0.011721
1207.6575,0.011897
1209.5211,0.012048
1211.3848,0.012203
1213.2485,0.012380
1215.1121,0.012632
1216.9758,0.012869
1218.8395,0.013168
1220.7031,0.013619
1222.5668,0.013988
1224.4305,0.014295
1226.2941,0.014615
1228.1578,0.014899
1230.0215,0.015183
1231.8852,0.015366
1233.7488,0.015454
1235.6125,0.015515
1237.4762,0.015565
1239.3398,0.015564
1241.2035,0.015430
1243.0672,0.015245
1244.9308,0.015080
1246.7945,0.014867
1248.6582,0.014618
1250.5218,0.014289
1252.3855,0.014005
1254.2492,0.013767
1256.1129,0.013445
1257.9765,0.013110
1259.8402,0.012920
1261.7039,0.012797
1263.5675,0.012610
1265.4312,0.012497
1267.2949,0.012427
1269.1585,0.012367
1271.0222,0.012323
1272.8859,0.012256
1274.7495,0.012151
1276.6132,0.012115
1278.4769,0.012066
1280.3405,0.012021
1282.2042,0.011954
1284.0679,0.011948
1285.9316,0.012079
1287.7952,0.012097
1289.6589,0.012103
1291.5226,0.012131
1293.3862,0.012272
1295.2499,0.012431
1297.1136,0.012549
1298.9772,0.012757
1300.8409,0.012909
1302.7046,0.013065
1304.5682,0.013217
1306.4319,0.013398
1308.2956,0.013554
1310.1592,0.013607
1312.0229,0.013764
1313.8866,0.013853
1315.7503,0.013795
1317.6139,0.013738
1319.4776,0.013753
1321.3413,0.013638
1323.2049,0.013406
1325.0686,0.013170
1326.9323,0.013094
1328.7959,0.012951
1330.6596,0.012911
1332.5233,0.012941
1334.3869,0.012833
1336.2506,0.012779
1338.1143,0.012826
1339.9780,0.012910
1341.8416,0.013004
1343.7053,0.013026
1345.5690,0.013038
1347.4326,0.012875
1349.2963,0.012777
1351.1600,0.012838
1353.0236,0.012837
1354.8873,0.012857
1356.7510,0.013020
1358.6146,0.013097
1360.4783,0.013146
1362.3420,0.013539
1364.2056,0.014117
1366.0693,0.014464
1367.9330,0.014790
1369.7967,0.015276
1371.6603,0.015731
1373.5240,0.016121
1375.3877,0.016473
1377.2513,0.016686
1379.1150,0.016928
1380.9787,0.017044
1382.8423,0.016999
1384.7060,0.016918
1386.5697,0.016901
1388.4333,0.016985
1390.2970,0.017045
1392.1607,0.017040
1394.0244,0.016951
1395.8880,0.016921
1397.7517,0.017049
1399.6154,0.017098
1401.4790,0.016961
1403.3427,0.016836
1405.2064,0.016731
1407.0700,0.016462
1408.9337,0.016191
1410.7974,0.015944
1412.6610,0.015721
1414.5247,0.015481
1416.3884,0.015313
1418.2520,0.015136
1420.1157,0.015055
1421.9794,0.015042
1423.8431,0.014951
1425.7067,0.015016
1427.5704,0.015218
1429.4341,0.015597
1431.2977,0.016035
1433.1614,0.016195
1435.0251,0.016253
1436.8887,0.016805
1438.7524,0.017368
1440.6161,0.017448
1442.4797,0.017470
1444.3434,0.017499
1446.2071,0.017553
1448.0707,0.017567
1449.9344,0.017485
1451.7981,0.017139
1453.6618,0.016741
1455.5254,0.016212
1457.3891,0.015876
1459.2528,0.015608
1461.1164,0.015151
1462.9801,0.014648
1464.8438,0.014333
1466.7074,0.013821
1468.5711,0.013245
1470.4348,0.012660
1472.2984,0.012126
1474.1621,0.011884
1476.0258,0.011455
1477.8895,0.011268
1479.7531,0.011084
1481.6168,0.011107
1483.4805,0.011398
1485.3441,0.011550
1487.2078,0.011985
1489.0715,0.012940
1490.9351,0.013934
1492.7988,0.014454
1494.6625,0.014935
1496.5261,0.016243
1498.3898,0.017632
1500.2535,0.018423
1502.1171,0.018954
1503.9808,0.019198
1505.8445,0.019964
1507.7082,0.022360
1509.5718,0.023647
1511.4355,0.024358
1513.2992,0.024989
1515.1628,0.025450
1517.0265,0.025951
1518.8902,0.026468
1520.7538,0.026582
1522.6175,0.026979
1524.4812,0.027239
1526.3448,0.027713
1528.2085,0.028269
1530.0722,0.028608
1531.9359,0.028567
1533.7995,0.028946
1535.6632,0.029232
1537.5269,0.028813
1539.3905,0.028640
1541.2542,0.029035
1543.1179,0.029132
1544.9815,0.029077
1546.8452,0.028607
1548.7089,0.028091
1550.5725,0.027556
1552.4362,0.026900
1554.2999,0.026080
1556.1635,0.025227
1558.0272,0.024064
1559.8909,0.023730
1561.7546,0.023607
1563.6182,0.022835
1565.4819,0.022106
1567.3456,0.021573
1569.2092,0.020854
1571.0729,0.020460
1572.9366,0.019916
1574.8002,0.019249
1576.6639,0.019080
1578.5276,0.019030
1580.3912,0.018646
1582.2549,0.018469
1584.1186,0.018644
1585.9822,0.018986
1587.8459,0.019107
1589.7096,0.019238
1591.5733,0.019644
1593.4369,0.020258
1595.3006,0.021003
1597.1643,0.021553
1599.0279,0.022298
1600.8916,0.023344
1602.7553,0.024255
1604.6189,0.025102
1606.4826,0.026056
1608.3463,0.027110
1610.2099,0.028120
1612.0736,0.029008
1613.9373,0.029736
1615.8010,0.030359
1617.6646,0.031832
1619.5283,0.032938
1621.3920,0.033363
1623.2556,0.033787
1625.1193,0.034511
1626.9830,0.035054
1628.8466,0.035432
1630.7103,0.035517
1632.5740,0.035140
1634.4376,0.034783
1636.3013,0.034493
1638.1650,0.034295
1640.0286,0.034083
1641.8923,0.033619
1643.7560,0.033003
1645.6197,0.032375
1647.4833,0.031660
1649.3470,0.031110
1651.2107,0.030040
1653.0743,0.028665
1654.9380,0.028179
1656.8017,0.027629
1658.6653,0.026743
1660.5290,0.025622
1662.3927,0.024203
1664.2563,0.023162
1666.1200,0.022229
1667.9837,0.020838
1669.8474,0.019339
1671.7110,0.018210
1673.5747,0.016950
1675.4384,0.015645
1677.3020,0.014578
1679.1657,0.013502
1681.0294,0.012198
1682.8930,0.010395
1684.7567,0.008295
1686.6204,0.007361
1688.4840,0.006368
1690.3477,0.005026
1692.2114,0.003833
1694.0750,0.002458
1695.9387,0.000833
1697.8024,-0.000194
1699.6661,-0.001849
1701.5297,-0.003034
1703.3934,-0.003590
1705.2571,-0.004377
1707.1207,-0.004967
1708.9844,-0.005352
1710.8481,-0.005759
1712.7117,-0.006051
1714.5754,-0.006458
1716.4391,-0.007019
1718.3027,-0.007285
1720.1664,-0.006897
1722.0301,-0.006975
1723.8937,-0.007088
1725.7574,-0.007091
1727.6211,-0.007108
1729.4848,-0.007056
1731.3484,-0.007137
1733.2121,-0.007964
1735.0758,-0.007834
1736.9394,-0.007367
1738.8031,-0.007405
1740.6668,-0.007358
1742.5304,-0.007300
1744.3941,-0.007254
1746.2578,-0.007367
1748.1214,-0.007467
1749.9851,-0.007719
1751.8488,-0.007781
1753.7125,-0.007583
1755.5761,-0.007724
1757.4398,-0.007767
1759.3035,-0.007811
1761.1671,-0.007931
1763.0308,-0.007815
1764.8945,-0.007804
1766.7581,-0.007996
1768.6218,-0.007987
1770.4855,-0.008057
1772.3491,-0.008067
1774.2128,-0.007767
1776.0765,-0.007672
1777.9401,-0.007610
1779.8038,-0.007866
1781.6675,-0.007754
1783.5312,-0.007652
1785.3948,-0.007736
1787.2585,-0.007703
1789.1222,-0.007958
1790.9858,-0.008057
1792.8495,-0.007611
1794.7132,-0.007383
1796.5768,-0.007485
1798.4405,-0.007553
1800.3042,-0.007721
1802.1678,-0.007551
1804.0315,-0.007389
1805.8952,-0.007390
1807.7589,-0.007274
1809.6225,-0.007286
1811.4862,-0.007385
1813.3499,-0.007480
1815.2135,-0.007629
1817.0772,-0.007494
1818.9409,-0.007202
1820.8045,-0.007171
1822.6682,-0.007471
1824.5319,-0.007536
1826.3955,-0.007288
1828.2592,-0.007174
1830.1229,-0.006932
1831.9865,-0.006616
1833.8502,-0.006783
1835.7139,-0.006939
1837.5776,-0.007087
1839.4412,-0.007107
1841.3049,-0.006804
1843.1686,-0.006763
1845.0322,-0.006641
1846.8959,-0.006463
1848.7596,-0.006487
1850.6232,-0.006355
1852.4869,-0.006311
1854.3506,-0.006510
1856.2142,-0.006785
1858.0779,-0.006881
1859.9416,-0.006582
1861.8052,-0.006115
1863.6689,-0.006179
1865.5326,-0.006298
1867.3963,-0.006376
1869.2599,-0.006158
1871.1236,-0.005748
1872.9873,-0.005830
1874.8509,-0.006413
1876.7146,-0.006649
1878.5783,-0.006306
1880.4419,-0.005830
1882.3056,-0.005701
1884.1693,-0.006120
1886.0329,-0.006565
1887.8966,-0.006283
1889.7603,-0.005627
1891.6240,-0.005926
1893.4876,-0.006862
1895.3513,-0.006732
1897.2150,-0.006488
1899.0786,-0.006512
1900.9423,-0.006145
1902.8060,-0.005874
1904.6696,-0.005896
1906.5333,-0.006295
1908.3970,-0.006473
1910.2606,-0.006055
1912.1243,-0.005846
1913.9880,-0.005838
1915.8516,-0.005935
1917.7153,-0.006215
1919.5790,-0.005837
1921.4427,-0.005215
1923.3063,-0.005170
1925.1700,-0.005432
1927.0337,-0.005649
1928.8973,-0.005582
1930.7610,-0.005376
1932.6247,-0.005249
1934.4883,-0.005170
1936.3520,-0.004743
1938.2157,-0.004460
1940.0793,-0.004600
1941.9430,-0.004277
1943.8067,-0.003945
1945.6704,-0.003860
1947.5340,-0.003761
1949.3977,-0.003960
1951.2614,-0.003893
1953.1250,-0.003648
1954.9887,-0.003953
1956.8524,-0.003929
1958.7160,-0.003869
1960.5797,-0.004030
1962.4434,-0.003671
1964.3070,-0.003722
1966.1707,-0.003294
1968.0344,-0.003129
1969.8980,-0.003485
1971.7617,-0.002202
1973.6254,-0.001551
1975.4891,-0.001917
1977.3527,-0.001659
1979.2164,-0.001880
1981.0801,-0.002360
1982.9437,-0.002151
1984.8074,-0.001816
1986.6711,-0.002001
1988.5347,-0.002275
1990.3984,-0.001868
1992.2621,-0.001354
1994.1257,-0.001647
1995.9894,-0.002866
1997.8531,-0.003642
1999.7167,-0.003424
2001.5804,-0.004095
2003.4441,-0.004420
2005.3078,-0.003176
2007.1714,-0.001865
2009.0351,-0.001426
2010.8988,-0.001200
2012.7624,-0.001080
2014.6261,-0.002059
2016.4898,-0.002841
2018.3534,-0.002672
2020.2171,-0.003016
2022.0808,-0.003061
2023.9444,-0.003755
2025.8081,-0.004162
2027.6718,-0.002037
2029.5355,-0.000843
2031.3991,-0.001974
2033.2628,-0.001625
2035.1265,0.000282
2036.9901,0.000666
2038.8538,-0.001415
2040.7175,-0.002901
2042.5811,-0.002469
2044.4448,-0.002526
2046.3085,-0.002665
2048.1721,-0.001993
2050.0358,-0.001574
2051.8995,-0.002153
2053.7631,-0.003068
2055.6268,-0.003003
2057.4905,-0.002498
2059.3542,-0.002303
2061.2178,-0.002822
2063.0815,-0.003757
2064.9452,-0.003966
2066.8088,-0.003482
2068.6725,-0.002931
2070.5362,-0.002708
2072.3998,-0.002693
2074.2635,-0.003442
2076.1272,-0.004376
2077.9908,-0.003672
2079.8545,-0.003087
2081.7182,-0.003948
2083.5819,-0.004123
2085.4455,-0.003550
2087.3092,-0.003622
2089.1729,-0.004061
2091.0365,-0.004269
2092.9002,-0.004532
2094.7639,-0.005064
2096.6275,-0.004965
2098.4912,-0.004534
2100.3549,-0.004515
2102.2185,-0.004200
2104.0822,-0.004056
2105.9459,-0.004376
2107.8095,-0.004573
2109.6732,-0.004644
2111.5369,-0.004707
2113.4006,-0.004431
2115.2642,-0.004438
2117.1279,-0.004818
2118.9916,-0.005047
2120.8552,-0.004796
2122.7189,-0.004422
2124.5826,-0.005105
2126.4462,-0.006005
2128.3099,-0.005835
2130.1736,-0.005052
2132.0372,-0.004908
2133.9009,-0.004882
2135.7646,-0.004224
2137.6282,-0.003790
2139.4919,-0.003657
2141.3556,-0.003579
2143.2193,-0.003863
2145.0829,-0.004657
2146.9466,-0.004189
2148.8103,-0.002812
2150.6739,-0.002761
2152.5376,-0.002909
2154.4013,-0.003162
2156.2649,-0.003820
2158.1286,-0.002454
2159.9923,-0.000481
2161.8559,-0.000522
2163.7196,0.000109
2165.5833,0.000704
2167.4470,-0.000782
2169.3106,-0.001670
2171.1743,-0.001512
2173.0380,-0.002414
2174.9016,-0.003348
2176.7653,-0.002608
2178.6290,-0.002263
2180.4926,-0.002749
2182.3563,-0.001967
2184.2200,-0.001313
2186.0836,-0.001539
2187.9473,-0.001406
2189.8110,-0.001682
2191.6746,-0.002164
2193.5383,-0.001858
2195.4020,-0.001971
2197.2657,-0.002805
2199.1293,-0.002824
2200.9930,-0.002556
2202.8567,-0.002883
2204.7203,-0.003004
2206.5840,-0.003133
2208.4477,-0.003564
2210.3113,-0.003595
2212.1750,-0.003562
2214.0387,-0.003559
2215.9023,-0.003322
2217.7660,-0.003120
2219.6297,-0.003261
2221.4934,-0.003203
2223.3570,-0.002877
2225.2207,-0.003538
2227.0844,-0.003870
2228.9480,-0.003659
2230.8117,-0.003912
2232.6754,-0.003764
2234.5390,-0.003870
2236.4027,-0.004120
2238.2664,-0.003874
2240.1300,-0.004215
2241.9937,-0.003949
2243.8574,-0.003211
2245.7210,-0.003787
2247.5847,-0.004427
2249.4484,-0.004498
2251.3121,-0.004695
2253.1757,-0.004616
2255.0394,-0.004266
2256.9031,-0.004034
2258.7667,-0.003743
2260.6304,-0.003983
2262.4941,-0.004752
2264.3577,-0.005102
2266.2214,-0.004812
2268.0851,-0.004104
2269.9487,-0.003584
2271.8124,-0.004242
2273.6761,-0.005069
2275.5397,-0.004702
2277.4034,-0.004266
2279.2671,-0.004479
2281.1308,-0.004642
2282.9944,-0.004707
2284.8581,-0.004694
2286.7218,-0.004687
2288.5854,-0.004729
2290.4491,-0.004559
2292.3128,-0.004698
2294.1764,-0.005104
2296.0401,-0.005372
2297.9038,-0.005529
2299.7674,-0.005537
2301.6311,-0.005711
2303.4948,-0.005808
2305.3585,-0.005701
2307.2221,-0.005706
2309.0858,-0.005707
2310.9495,-0.005564
2312.8131,-0.005520
2314.6768,-0.005684
2316.5405,-0.005650
2318.4041,-0.005536
2320.2678,-0.005287
2322.1315,-0.004858
2323.9951,-0.004669
2325.8588,-0.005380
2327.7225,-0.006552
2329.5861,-0.006835
2331.4498,-0.006228
2333.3135,-0.005790
2335.1772,-0.005776
2337.0408,-0.005982
2338.9045,-0.006443
2340.7682,-0.006565
2342.6318,-0.006228
2344.4955,-0.006209
2346.3592,-0.006428
2348.2228,-0.006504
2350.0865,-0.006497
2351.9502,-0.006632
2353.8138,-0.006427
2355.6775,-0.005691
2357.5412,-0.005268
2359.4049,-0.005304
2361.2685,-0.005212
2363.1322,-0.005281
2364.9959,-0.005664
2366.8595,-0.005805
2368.7232,-0.005916
2370.5869,-0.006441
2372.4505,-0.006898
2374.3142,-0.006763
2376.1779,-0.006466
2378.0415,-0.006534
2379.9052,-0.006784
2381.7689,-0.006791
2383.6325,-0.006597
2385.4962,-0.006682
2387.3599,-0.006878
2389.2236,-0.007029
2391.0872,-0.006844
2392.9509,-0.006684
2394.8146,-0.006782
2396.6782,-0.006773
2398.5419,-0.006555
2400.4056,-0.006491
2402.2692,-0.006567
2404.1329,-0.006569
2405.9966,-0.006573
2407.8602,-0.006501
2409.7239,-0.006407
2411.5876,-0.006397
2413.4512,-0.006284
2415.3149,-0.006323
2417.1786,-0.006368
2419.0423,-0.006396
2420.9059,-0.006427
2422.7696,-0.006289
2424.6333,-0.006079
2426.4969,-0.005907
2428.3606,-0.005824
2430.2243,-0.006031
2432.0879,-0.006209
2433.9516,-0.006234
2435.8153,-0.005940
2437.6789,-0.005831
2439.5426,-0.006055
2441.4063,-0.005813
2443.2700,-0.005394
2445.1336,-0.005448
2446.9973,-0.005608
2448.8610,-0.005623
2450.7246,-0.005341
2452.5883,-0.005232
2454.4520,-0.005384
2456.3156,-0.005393
2458.1793,-0.005223
2460.0430,-0.005467
2461.9066,-0.005639
2463.7703,-0.005527
2465.6340,-0.005448
2467.4976,-0.005623
2469.3613,-0.005716
2471.2250,-0.005647
2473.0887,-0.005524
2474.9523,-0.005253
2476.8160,-0.005368
2478.6797,-0.005396
2480.5433,-0.005212
2482.4070,-0.005215
2484.2707,-0.005137
2486.1343,-0.005309
2487.9980,-0.005481
2489.8617,-0.005236
2491.7253,-0.004878
2493.5890,-0.005158
2495.4527,-0.005318
2497.3164,-0.005307
2499.1800,-0.005392
2501.0437,-0.005164
2502.9074,-0.005196
2504.7710,-0.005287
2506.6347,-0.004775
2508.4984,-0.004512
2510.3620,-0.005028
2512.2257,-0.005175
2514.0894,-0.004952
2515.9530,-0.004994
2517.8167,-0.005080
2519.6804,-0.005143
2521.5440,-0.005117
2523.4077,-0.004937
2525.2714,-0.004767
2527.1351,-0.004792
2528.9987,-0.004729
2530.8624,-0.004736
2532.7261,-0.004904
2534.5897,-0.005150
2536.4534,-0.005265
2538.3171,-0.005309
2540.1807,-0.005097
2542.0444,-0.004687
2543.9081,-0.004417
2545.7717,-0.004518
2547.6354,-0.004605
2549.4991,-0.004891
2551.3627,-0.005057
2553.2264,-0.004811
2555.0901,-0.004559
2556.9538,-0.004453
2558.8174,-0.004271
2560.6811,-0.004306
2562.5448,-0.004490
2564.4084,-0.004501
2566.2721,-0.004629
2568.1358,-0.004452
2569.9994,-0.004046
2571.8631,-0.004374
2573.7268,-0.004742
2575.5904,-0.004581
2577.4541,-0.004649
2579.3178,-0.004531
