Wavenumber,Intensity
650.4205,0.184207
652.2841,0.180026
654.1478,0.176886
656.0115,0.175863
657.8751,0.175803
659.7388,0.172344
661.6025,0.172702
663.4661,0.172416
665.3298,0.169823
667.1935,0.169492
669.0571,0.174135
670.9208,0.171072
672.7845,0.168169
674.6481,0.165258
676.5118,0.164290
678.3755,0.163133
680.2392,0.162865
682.1028,0.161489
683.9665,0.160677
685.8302,0.159563
687.6938,0.157543
689.5575,0.156632
691.4212,0.157449
693.2848,0.157095
695.1485,0.155981
697.0122,0.153874
698.8758,0.152942
700.7395,0.151821
702.6032,0.150926
704.4669,0.149454
706.3305,0.147873
708.1942,0.146870
710.0579,0.145908
711.9215,0.143492
713.7852,0.141033
715.6489,0.138795
717.5125,0.137121
719.3762,0.136367
721.2399,0.135950
723.1035,0.134340
724.9672,0.132618
726.8309,0.130643
728.6945,0.128786
730.5582,0.127688
732.4219,0.126900
734.2856,0.126189
736.1492,0.125826
738.0129,0.125324
739.8766,0.124349
741.7402,0.123943
743.6039,0.123696
745.4676,0.122888
747.3312,0.122018
749.1949,0.120827
751.0586,0.119387
752.9222,0.118032
754.7859,0.117154
756.6496,0.116214
758.5132,0.115281
760.3769,0.114577
762.2406,0.114328
764.1043,0.113702
765.9679,0.113150
767.8316,0.112247
769.6953,0.111448
771.5589,0.110443
773.4226,0.109316
775.2863,0.108311
777.1499,0.107818
779.0136,0.107578
780.8773,0.106678
782.7409,0.105545
784.6046,0.104859
786.4683,0.103506
788.3320,0.101778
790.1956,0.100834
792.0593,0.100889
793.9230,0.100714
795.7866,0.099680
797.6503,0.098937
799.5140,0.098819
801.3776,0.098357
803.2413,0.097770
805.1050,0.096968
806.9686,0.096243
808.8323,0.095682
810.6960,0.094891
812.5596,0.093995
814.4233,0.093586
816.2870,0.093189
818.1507,0.092606
820.0143,0.091904
821.8780,0.091065
823.7417,0.090019
825.6053,0.089296
827.4690,0.088549
829.3327,0.087736
831.1963,0.086976
833.0600,0.086065
834.9237,0.085154
836.7873,0.084596
838.6510,0.083910
840.5147,0.082882
842.3784,0.081892
844.2420,0.081357
846.1057,0.081192
847.9694,0.081002
849.8330,0.080783
851.6967,0.080585
853.5604,0.080268
855.4240,0.080057
857.2877,0.080033
859.1514,0.080118
861.0150,0.080186
862.8787,0.080445
864.7424,0.081127
866.6060,0.081847
868.4697,0.082243
870.3334,0.082431
872.1971,0.082842
874.0607,0.083006
875.9244,0.082265
877.7881,0.081068
879.6517,0.079979
881.5154,0.078994
883.3791,0.077767
885.2427,0.076429
887.1064,0.075306
888.9701,0.074929
890.8337,0.074978
892.6974,0.074848
894.5611,0.074597
896.4247,0.074301
898.2884,0.074030
900.1521,0.073832
902.0158,0.073565
903.8794,0.073402
905.7431,0.073558
907.6068,0.073914
909.4704,0.074171
911.3341,0.074576
913.1978,0.075126
915.0614,0.075555
916.9251,0.076001
918.7888,0.076565
920.6524,0.076868
922.5161,0.077048
924.3798,0.077221
926.2435,0.077245
928.1071,0.077178
929.9708,0.077383
931.8345,0.077661
933.6981,0.077836
935.5618,0.077949
937.4255,0.078276
939.2891,0.078746
941.1528,0.079263
943.0165,0.079920
944.8801,0.080856
946.7438,0.081642
948.6075,0.082240
950.4711,0.083010
952.3348,0.083974
954.1985,0.084918
956.0622,0.086145
957.9258,0.087712
959.7895,0.089600
961.6532,0.091720
963.5168,0.093713
965.3805,0.095415
967.2442,0.096735
969.1078,0.097356
970.9715,0.097439
972.8352,0.097375
974.6988,0.097249
976.5625,0.097348
978.4262,0.097818
980.2899,0.098588
982.1535,0.099720
984.0172,0.101152
985.8809,0.102709
987.7445,0.104206
989.6082,0.105844
991.4719,0.107756
993.3355,0.109966
995.1992,0.112104
997.0629,0.114182
998.9265,0.116227
1000.7902,0.118317
1002.6539,0.120508
1004.5175,0.122759
1006.3812,0.125184
1008.2449,0.127965
1010.1086,0.130939
1011.9722,0.134121
1013.8359,0.137358
1015.6996,0.140511
1017.5632,0.143354
1019.4269,0.145989
1021.2906,0.148136
1023.1542,0.149775
1025.0179,0.151084
1026.8816,0.152336
1028.7452,0.153504
1030.6089,0.154630
1032.4726,0.155575
1034.3362,0.156342
1036.1999,0.156866
1038.0636,0.157242
1039.9273,0.157366
1041.7909,0.157296
1043.6546,0.157356
1045.5183,0.157668
1047.3819,0.157877
1049.2456,0.158039
1051.1093,0.158174
1052.9729,0.158381
1054.8366,0.158460
1056.7003,0.158408
1058.5639,0.158240
1060.4276,0.158068
1062.2913,0.157980
1064.1550,0.158081
1066.0186,0.158310
1067.8823,0.158494
1069.7460,0.158530
1071.6096,0.158476
1073.4733,0.158091
1075.3370,0.157234
1077.2006,0.155851
1079.0643,0.153821
1080.9280,0.151219
1082.7916,0.148228
1084.6553,0.144719
1086.5190,0.141128
1088.3826,0.137521
1090.2463,0.134092
1092.1100,0.131081
1093.9737,0.128435
1095.8373,0.126057
1097.7010,0.124011
1099.5647,0.122171
1101.4283,0.120545
1103.2920,0.119175
1105.1557,0.118110
1107.0193,0.117242
1108.8830,0.116465
1110.7467,0.115750
1112.6103,0.115184
1114.4740,0.114560
1116.3377,0.113815
1118.2014,0.112864
1120.0650,0.111759
1121.9287,0.110678
1123.7924,0.109592
1125.6560,0.108246
1127.5197,0.106752
1129.3834,0.105323
1131.2470,0.103686
1133.1107,0.101902
1134.9744,0.100333
1136.8380,0.098927
1138.7017,0.097786
1140.5654,0.096956
1142.4290,0.096369
1144.2927,0.096093
1146.1564,0.096151
1148.0201,0.096328
1149.8837,0.096451
1151.7474,0.096429
1153.6111,0.096381
1155.4747,0.096260
1157.3384,0.096055
1159.2021,0.095783
1161.0657,0.095419
1162.9294,0.094904
1164.7931,0.094218
1166.6567,0.093350
1168.5204,0.092333
1170.3841,0.091018
1172.2477,0.089287
1174.1114,0.087275
1175.9751,0.085249
1177.8388,0.083611
1179.7024,0.082556
1181.5661,0.082084
1183.4298,0.082132
1185.2934,0.082486
1187.1571,0.083089
1189.0208,0.083951
1190.8844,0.084998
1192.7481,0.086165
1194.6118,0.087503
1196.4754,0.088998
1198.3391,0.090644
1200.2028,0.092482
1202.0665,0.094284
1203.9301,0.095862
1205.7938,0.097396
1207.6575,0.098815
1209.5211,0.100041
1211.3848,0.101226
1213.2485,0.102601
1215.1121,0.104097
1216.9758,0.105577
1218.8395,0.107053
1220.7031,0.108482
1222.5668,0.109859
1224.4305,0.111189
1226.2941,0.112263
1228.1578,0.113143
1230.0215,0.113934
1231.8852,0.114589
1233.7488,0.114869
1235.6125,0.114906
1237.4762,0.114793
1239.3398,0.114440
1241.2035,0.113799
1243.0672,0.112961
1244.9308,0.111972
1246.7945,0.110909
1248.6582,0.109808
1250.5218,0.108637
1252.3855,0.107525
1254.2492,0.106419
1256.1129,0.105282
1257.9765,0.104277
1259.8402,0.103587
1261.7039,0.103071
1263.5675,0.102404
1265.4312,0.101786
1267.2949,0.101290
1269.1585,0.100890
1271.0222,0.100643
1272.8859,0.100462
1274.7495,0.100159
1276.6132,0.100052
1278.4769,0.100107
1280.3405,0.100148
1282.2042,0.100122
1284.0679,0.100043
1285.9316,0.099990
1287.7952,0.100131
1289.6589,0.100326
1291.5226,0.100467
1293.3862,0.100676
1295.2499,0.100893
1297.1136,0.101118
1298.9772,0.101411
1300.8409,0.101632
1302.7046,0.101776
1304.5682,0.101896
1306.4319,0.102132
1308.2956,0.102350
1310.1592,0.102334
1312.0229,0.102469
1313.8866,0.102525
1315.7503,0.101991
1317.6139,0.101541
1319.4776,0.101207
1321.3413,0.100541
1323.2049,0.099787
1325.0686,0.099125
1326.9323,0.098610
1328.7959,0.098365
1330.6596,0.098368
1332.5233,0.098353
1334.3869,0.097913
1336.2506,0.097821
1338.1143,0.099108
1339.9780,0.100918
1341.8416,0.100773
1343.7053,0.099767
1345.5690,0.099439
1347.4326,0.099427
1349.2963,0.099499
1351.1600,0.099642
1353.0236,0.099980
1354.8873,0.100571
1356.7510,0.100754
1358.6146,0.100777
1360.4783,0.102200
1362.3420,0.105945
1364.2056,0.108418
1366.0693,0.108536
1367.9330,0.109660
1369.7967,0.110876
1371.6603,0.111603
1373.5240,0.114788
1375.3877,0.117958
1377.2513,0.118432
1379.1150,0.119193
1380.9787,0.119938
1382.8423,0.119959
1384.7060,0.120204
1386.5697,0.122481
1388.4333,0.124231
1390.2970,0.122172
1392.1607,0.120349
1394.0244,0.121878
1395.8880,0.123609
1397.7517,0.123280
1399.6154,0.123140
1401.4790,0.120726
1403.3427,0.118773
1405.2064,0.118815
1407.0700,0.117264
1408.9337,0.115011
1410.7974,0.113873
1412.6610,0.112146
1414.5247,0.109488
1416.3884,0.108134
1418.2520,0.110945
1420.1157,0.112941
1421.9794,0.109849
1423.8431,0.108623
1425.7067,0.108277
1427.5704,0.107582
1429.4341,0.109171
1431.2977,0.110286
1433.1614,0.109430
1435.0251,0.111647
1436.8887,0.118623
1438.7524,0.119336
1440.6161,0.116587
1442.4797,0.116040
1444.3434,0.115845
1446.2071,0.116217
1448.0707,0.117869
1449.9344,0.116775
1451.7981,0.113415
1453.6618,0.110315
1455.5254,0.111527
1457.3891,0.118549
1459.2528,0.115794
1461.1164,0.108505
1462.9801,0.105740
1464.8438,0.107345
1466.7074,0.105714
1468.5711,0.100681
1470.4348,0.098275
1472.2984,0.101447
1474.1621,0.103198
1476.0258,0.101360
1477.8895,0.099507
1479.7531,0.098532
1481.6168,0.099509
1483.4805,0.099856
1485.3441,0.100458
1487.2078,0.105115
1489.0715,0.113640
1490.9351,0.119757
1492.7988,0.118412
1494.6625,0.119105
1496.5261,0.128045
1498.3898,0.135881
1500.2535,0.136202
1502.1171,0.133812
1503.9808,0.133349
1505.8445,0.145258
1507.7082,0.165992
1509.5718,0.163929
1511.4355,0.160504
1513.2992,0.160680
1515.1628,0.161783
1517.0265,0.164738
1518.8902,0.164933
1520.7538,0.167358
1522.6175,0.172195
1524.4812,0.171103
1526.3448,0.171893
1528.2085,0.172493
1530.0722,0.170132
1531.9359,0.169822
1533.7995,0.172677
1535.6632,0.169668
1537.5269,0.165280
1539.3905,0.169222
1541.2542,0.175447
1543.1179,0.171513
1544.9815,0.167049
1546.8452,0.161357
1548.7089,0.156251
1550.5725,0.151961
1552.4362,0.146305
1554.2999,0.140719
1556.1635,0.136147
1558.0272,0.137252
1559.8909,0.140490
1561.7546,0.131609
1563.6182,0.124610
1565.4819,0.120698
1567.3456,0.117937
1569.2092,0.117425
1571.0729,0.115590
1572.9366,0.110839
1574.8002,0.109408
1576.6639,0.111979
1578.5276,0.110298
1580.3912,0.107043
1582.2549,0.105860
1584.1186,0.105674
1585.9822,0.105787
1587.8459,0.106380
1589.7096,0.107596
1591.5733,0.109104
1593.4369,0.111206
1595.3006,0.113996
1597.1643,0.116515
1599.0279,0.118926
1600.8916,0.122098
1602.7553,0.126157
1604.6189,0.130357
1606.4826,0.134651
1608.3463,0.139978
1610.2099,0.144750
1612.0736,0.147968
1613.9373,0.151307
1615.8010,0.158729
1617.6646,0.168015
1619.5283,0.169104
1621.3920,0.169991
1623.2556,0.176192
1625.1193,0.180786
1626.9830,0.182321
1628.8466,0.183994
1630.7103,0.183050
1632.5740,0.181157
1634.4376,0.182967
1636.3013,0.187402
1638.1650,0.184620
1640.0286,0.179374
1641.8923,0.175421
1643.7560,0.171968
1645.6197,0.170041
1647.4833,0.168467
1649.3470,0.162882
1651.2107,0.158019
1653.0743,0.158054
1654.9380,0.153577
1656.8017,0.145093
1658.6653,0.137984
1660.5290,0.132189
1662.3927,0.127376
1664.2563,0.121750
1666.1200,0.115706
1667.9837,0.110980
1669.8474,0.107216
1671.7110,0.102492
1673.5747,0.097681
1675.4384,0.093737
1677.3020,0.088989
1679.1657,0.083991
1681.0294,0.079206
1682.8930,0.075612
1684.7567,0.072473
1686.6204,0.067268
1688.4840,0.062254
1690.3477,0.057434
1692.2114,0.052412
1694.0750,0.047856
1695.9387,0.043505
1697.8024,0.038947
1699.6661,0.035622
1701.5297,0.032676
1703.3934,0.029878
1705.2571,0.027337
1707.1207,0.025272
1708.9844,0.023651
1710.8481,0.022155
1712.7117,0.020958
1714.5754,0.020082
1716.4391,0.019278
1718.3027,0.018602
1720.1664,0.017790
1722.0301,0.016735
1723.8937,0.015804
1725.7574,0.015110
1727.6211,0.014553
1729.4848,0.014167
1731.3484,0.013796
1733.2121,0.013382
1735.0758,0.013155
1736.9394,0.012696
1738.8031,0.012269
1740.6668,0.012288
1742.5304,0.012000
1744.3941,0.011315
1746.2578,0.011002
1748.1214,0.010753
1749.9851,0.010049
1751.8488,0.009406
1753.7125,0.008849
1755.5761,0.008257
1757.4398,0.008011
1759.3035,0.007881
1761.1671,0.007602
1763.0308,0.007520
1764.8945,0.007234
1766.7581,0.006804
1768.6218,0.006850
1770.4855,0.006974
1772.3491,0.006793
1774.2128,0.006545
1776.0765,0.006438
1777.9401,0.006519
1779.8038,0.006507
1781.6675,0.006459
1783.5312,0.006460
1785.3948,0.006448
1787.2585,0.006480
1789.1222,0.006566
1790.9858,0.006625
1792.8495,0.006671
1794.7132,0.006652
1796.5768,0.006478
1798.4405,0.006301
1800.3042,0.006361
1802.1678,0.006455
1804.0315,0.006136
1805.8952,0.005778
1807.7589,0.005886
1809.6225,0.006048
1811.4862,0.005964
1813.3499,0.005838
1815.2135,0.005638
1817.0772,0.005547
1818.9409,0.005623
1820.8045,0.005683
1822.6682,0.005867
1824.5319,0.005797
1826.3955,0.005564
1828.2592,0.005634
1830.1229,0.005784
1831.9865,0.005589
1833.8502,0.005412
1835.7139,0.005443
1837.5776,0.005347
1839.4412,0.005283
1841.3049,0.005207
1843.1686,0.005137
1845.0322,0.005310
1846.8959,0.005468
1848.7596,0.005588
1850.6232,0.005500
1852.4869,0.005242
1854.3506,0.005338
1856.2142,0.005745
1858.0779,0.005698
1859.9416,0.005388
1861.8052,0.005470
1863.6689,0.005524
1865.5326,0.005118
1867.3963,0.005096
1869.2599,0.005476
1871.1236,0.005188
1872.9873,0.004656
1874.8509,0.005037
1876.7146,0.005593
1878.5783,0.005634
1880.4419,0.005538
1882.3056,0.005368
1884.1693,0.005376
1886.0329,0.005552
1887.8966,0.005507
1889.7603,0.005455
1891.6240,0.005319
1893.4876,0.005185
1895.3513,0.005089
1897.2150,0.004974
1899.0786,0.005066
1900.9423,0.004980
1902.8060,0.004803
1904.6696,0.005085
1906.5333,0.004818
1908.3970,0.004533
1910.2606,0.004667
1912.1243,0.004828
1913.9880,0.005144
1915.8516,0.004898
1917.7153,0.004596
1919.5790,0.004754
1921.4427,0.004346
1923.3063,0.003888
1925.1700,0.003967
1927.0337,0.004486
1928.8973,0.004637
1930.7610,0.004484
1932.6247,0.004699
1934.4883,0.004560
1936.3520,0.003804
1938.2157,0.003380
1940.0793,0.003544
1941.9430,0.003807
1943.8067,0.003498
1945.6704,0.003451
1947.5340,0.003670
1949.3977,0.003411
1951.2614,0.003185
1953.1250,0.003311
1954.9887,0.003356
1956.8524,0.003002
1958.7160,0.001479
1960.5797,0.001257
1962.4434,0.002772
1964.3070,0.002726
1966.1707,0.001459
1968.0344,0.001205
1969.8980,0.000879
1971.7617,0.000117
1973.6254,-0.000324
1975.4891,0.000039
1977.3527,0.000970
1979.2164,0.001562
1981.0801,0.000951
1982.9437,0.001385
1984.8074,0.002486
1986.6711,0.002305
1988.5347,0.001852
1990.3984,0.002275
1992.2621,0.002170
1994.1257,0.001829
1995.9894,0.001993
1997.8531,0.002203
1999.7167,0.001654
2001.5804,0.001007
2003.4441,0.001041
2005.3078,0.001279
2007.1714,0.000730
2009.0351,0.000413
2010.8988,0.000218
2012.7624,-0.000387
2014.6261,-0.000873
2016.4898,0.000302
2018.3534,0.000912
2020.2171,0.000782
2022.0808,0.001127
2023.9444,0.000411
2025.8081,-0.000865
2027.6718,0.000756
2029.5355,0.002164
2031.3991,0.001454
2033.2628,0.001578
2035.1265,0.002167
2036.9901,0.002268
2038.8538,0.002073
2040.7175,0.002043
2042.5811,0.002549
2044.4448,0.003354
2046.3085,0.004911
2048.1721,0.005430
2050.0358,0.005730
2051.8995,0.006721
2053.7631,0.007030
2055.6268,0.006147
2057.4905,0.005934
2059.3542,0.006600
2061.2178,0.006759
2063.0815,0.006139
2064.9452,0.006086
2066.8088,0.006445
2068.6725,0.006579
2070.5362,0.006977
2072.3998,0.007197
2074.2635,0.006861
2076.1272,0.007197
2077.9908,0.007287
2079.8545,0.007156
2081.7182,0.007517
2083.5819,0.007703
2085.4455,0.007277
2087.3092,0.006863
2089.1729,0.006519
2091.0365,0.006509
2092.9002,0.006594
2094.7639,0.006518
2096.6275,0.006367
2098.4912,0.006367
2100.3549,0.006470
2102.2185,0.006555
2104.0822,0.007018
2105.9459,0.007661
2107.8095,0.007663
2109.6732,0.007479
2111.5369,0.006915
2113.4006,0.006659
2115.2642,0.006829
2117.1279,0.007017
2118.9916,0.007437
2120.8552,0.007243
2122.7189,0.006425
2124.5826,0.005954
2126.4462,0.005545
2128.3099,0.005332
2130.1736,0.004851
2132.0372,0.004343
2133.9009,0.004307
2135.7646,0.004413
2137.6282,0.003703
2139.4919,0.002903
2141.3556,0.002825
2143.2193,0.002794
2145.0829,0.002075
2146.9466,0.001907
2148.8103,0.001979
2150.6739,0.001742
2152.5376,0.000367
2154.4013,-0.001707
2156.2649,-0.002426
2158.1286,-0.001554
2159.9923,-0.000260
2161.8559,0.001598
2163.7196,0.002390
2165.5833,0.002011
2167.4470,0.001444
2169.3106,0.001858
2171.1743,0.002409
2173.0380,0.002254
2174.9016,0.001338
2176.7653,0.001355
2178.6290,0.002223
2180.4926,0.002447
2182.3563,0.002885
2184.2200,0.003904
2186.0836,0.003845
2187.9473,0.002966
2189.8110,0.002635
2191.6746,0.003626
2193.5383,0.004689
2195.4020,0.004711
2197.2657,0.004700
2199.1293,0.005427
2200.9930,0.004967
2202.8567,0.004450
2204.7203,0.004891
2206.5840,0.005473
2208.4477,0.005029
2210.3113,0.004923
2212.1750,0.004885
2214.0387,0.004904
2215.9023,0.005423
2217.7660,0.005536
2219.6297,0.005318
2221.4934,0.005336
2223.3570,0.005469
2225.2207,0.005726
2227.0844,0.006163
2228.9480,0.006912
2230.8117,0.007550
2232.6754,0.007899
2234.5390,0.007456
2236.4027,0.007007
2238.2664,0.007136
2240.1300,0.007409
2241.9937,0.007155
2243.8574,0.007331
2245.7210,0.007713
2247.5847,0.007711
2249.4484,0.007833
2251.3121,0.007940
2253.1757,0.007405
2255.0394,0.007282
2256.9031,0.007110
2258.7667,0.007787
2260.6304,0.008670
2262.4941,0.008598
2264.3577,0.008332
2266.2214,0.008330
2268.0851,0.008076
2269.9487,0.008605
2271.8124,0.009585
2273.6761,0.009955
2275.5397,0.009706
2277.4034,0.009756
2279.2671,0.010008
2281.1308,0.010155
2282.9944,0.010267
2284.8581,0.010484
2286.7218,0.010447
2288.5854,0.010509
2290.4491,0.010558
2292.3128,0.010382
2294.1764,0.010289
2296.0401,0.010379
2297.9038,0.010231
2299.7674,0.010071
2301.6311,0.010037
2303.4948,0.010252
2305.3585,0.010296
2307.2221,0.010464
2309.0858,0.010650
2310.9495,0.010400
2312.8131,0.010035
2314.6768,0.009965
2316.5405,0.009877
2318.4041,0.010021
2320.2678,0.010191
2322.1315,0.010362
2323.9951,0.010408
2325.8588,0.010336
2327.7225,0.009899
2329.5861,0.009613
2331.4498,0.009368
2333.3135,0.009047
2335.1772,0.008734
2337.0408,0.008839
2338.9045,0.009268
2340.7682,0.009705
2342.6318,0.009763
2344.4955,0.009378
2346.3592,0.009147
2348.2228,0.008966
2350.0865,0.008503
2351.9502,0.007947
2353.8138,0.007855
2355.6775,0.007839
2357.5412,0.007951
2359.4049,0.008674
2361.2685,0.008968
2363.1322,0.009415
2364.9959,0.009973
2366.8595,0.009872
2368.7232,0.010135
2370.5869,0.010722
2372.4505,0.010923
2374.3142,0.011174
2376.1779,0.011561
2378.0415,0.011472
2379.9052,0.011221
2381.7689,0.011152
2383.6325,0.010998
2385.4962,0.011076
2387.3599,0.011072
2389.2236,0.010948
2391.0872,0.011023
2392.9509,0.011051
2394.8146,0.011035
2396.6782,0.011009
2398.5419,0.011005
2400.4056,0.011211
2402.2692,0.011185
2404.1329,0.011093
2405.9966,0.011170
2407.8602,0.011120
2409.7239,0.011049
2411.5876,0.011180
2413.4512,0.011325
2415.3149,0.011450
2417.1786,0.011302
2419.0423,0.011260
2420.9059,0.011444
2422.7696,0.011537
2424.6333,0.011558
2426.4969,0.011897
2428.3606,0.011851
2430.2243,0.011673
2432.0879,0.011610
2433.9516,0.011882
2435.8153,0.012203
2437.6789,0.012309
2439.5426,0.011996
2441.4063,0.011813
2443.2700,0.012245
2445.1336,0.012472
2446.9973,0.012573
2448.8610,0.012639
2450.7246,0.012625
2452.5883,0.012303
2454.4520,0.012006
2456.3156,0.012517
2458.1793,0.012773
2460.0430,0.012919
2461.9066,0.013114
2463.7703,0.012992
2465.6340,0.012918
2467.4976,0.012881
2469.3613,0.012777
2471.2250,0.012795
2473.0887,0.012867
2474.9523,0.013202
2476.8160,0.013370
2478.6797,0.013468
2480.5433,0.013541
2482.4070,0.013603
2484.2707,0.013601
2486.1343,0.013775
2487.9980,0.013915
2489.8617,0.013880
2491.7253,0.013759
2493.5890,0.014024
2495.4527,0.014300
2497.3164,0.014369
2499.1800,0.014513
2501.0437,0.014550
2502.9074,0.014872
2504.7710,0.015242
2506.6347,0.014784
2508.4984,0.014273
2510.3620,0.014539
2512.2257,0.015136
2514.0894,0.015511
2515.9530,0.015678
2517.8167,0.015488
2519.6804,0.015380
2521.5440,0.015259
2523.4077,0.015022
2525.2714,0.015180
2527.1351,0.015514
2528.9987,0.015653
2530.8624,0.015850
2532.7261,0.015798
2534.5897,0.015667
2536.4534,0.015626
2538.3171,0.015782
2540.1807,0.016260
2542.0444,0.016474
2543.9081,0.016210
2545.7717,0.016303
2547.6354,0.016423
2549.4991,0.016150
2551.3627,0.016147
2553.2264,0.016439
2555.0901,0.016570
2556.9538,0.016672
2558.8174,0.017015
2560.6811,0.017338
2562.5448,0.017392
2564.4084,0.017509
2566.2721,0.017488
2568.1358,0.017489
2569.9994,0.017515
2571.8631,0.017942
2573.7268,0.018339
2575.5904,0.018271
2577.4541,0.018039
2579.3178,0.018041
2581.1815,0.018172
2583.0451,0.018440
2584.9088,0.018612
2586.7725,0.018989
2588.6361,0.019374
2590.4998,0.019306
2592.3635,0.019171
2594.2271,0.019398
2596.0908,0.019640
2597.9545,0.019860
2599.8181,0.020162
2601.6818,0.020357
2603.5455,0.020169
2605.4091,0.020378
2607.2728,0.020633
2609.1365,0.020674
2611.0002,0.020729
2612.8638,0.020953
2614.7275,0.021109
2616.5912,0.021559
2618.4548,0.021862
2620.3185,0.021887
2622.1822,0.021775
2624.0458,0.022111
2625.9095,0.022625
