Wavenumber,Intensity
650.4205,0.065004
652.2841,0.064935
654.1478,0.062949
656.0115,0.062362
657.8751,0.065010
659.7388,0.064772
661.6025,0.063314
663.4661,0.063218
665.3298,0.062955
667.1935,0.063132
669.0571,0.064183
670.9208,0.063031
672.7845,0.062818
674.6481,0.063141
676.5118,0.062367
678.3755,0.061093
680.2392,0.060740
682.1028,0.061124
683.9665,0.060193
685.8302,0.059133
687.6938,0.059462
689.5575,0.059317
691.4212,0.058605
693.2848,0.057807
695.1485,0.058510
697.0122,0.059095
698.8758,0.057354
700.7395,0.056518
702.6032,0.056658
704.4669,0.056225
706.3305,0.055774
708.1942,0.055471
710.0579,0.055413
711.9215,0.054834
713.7852,0.054165
715.6489,0.053582
717.5125,0.053451
719.3762,0.053755
721.2399,0.053279
723.1035,0.052539
724.9672,0.051679
726.8309,0.050916
728.6945,0.050665
730.5582,0.049939
732.4219,0.049556
734.2856,0.049995
736.1492,0.050345
738.0129,0.050123
739.8766,0.049811
741.7402,0.049338
743.6039,0.048752
745.4676,0.048587
747.3312,0.048562
749.1949,0.048358
751.0586,0.047792
752.9222,0.047700
754.7859,0.047810
756.6496,0.047388
758.5132,0.046863
760.3769,0.046208
762.2406,0.045950
764.1043,0.046084
765.9679,0.045657
767.8316,0.045275
769.6953,0.045417
771.5589,0.045328
773.4226,0.045058
775.2863,0.044769
777.1499,0.044196
779.0136,0.044149
780.8773,0.044195
782.7409,0.043728
784.6046,0.043799
786.4683,0.043945
788.3320,0.043327
790.1956,0.042718
792.0593,0.042650
793.9230,0.042475
795.7866,0.041927
797.6503,0.041601
799.5140,0.041512
801.3776,0.041687
803.2413,0.041633
805.1050,0.040922
806.9686,0.040616
808.8323,0.040709
810.6960,0.040513
812.5596,0.040406
814.4233,0.040536
816.2870,0.040488
818.1507,0.040382
820.0143,0.040590
821.8780,0.040558
823.7417,0.040251
825.6053,0.040115
827.4690,0.039868
829.3327,0.039716
831.1963,0.039863
833.0600,0.039716
834.9237,0.039551
836.7873,0.039697
838.6510,0.039802
840.5147,0.039838
842.3784,0.039820
844.2420,0.039841
846.1057,0.039992
847.9694,0.040070
849.8330,0.040250
851.6967,0.040332
853.5604,0.040382
855.4240,0.040372
857.2877,0.040442
859.1514,0.040626
861.0150,0.040740
862.8787,0.040863
864.7424,0.040956
866.6060,0.040883
868.4697,0.040906
870.3334,0.041036
872.1971,0.040983
874.0607,0.040910
875.9244,0.040809
877.7881,0.040476
879.6517,0.040149
881.5154,0.039834
883.3791,0.039649
885.2427,0.039448
887.1064,0.039148
888.9701,0.038981
890.8337,0.038989
892.6974,0.038835
894.5611,0.038721
896.4247,0.038715
898.2884,0.038639
900.1521,0.038650
902.0158,0.038592
903.8794,0.038474
905.7431,0.038623
907.6068,0.038830
909.4704,0.038979
911.3341,0.039201
913.1978,0.039452
915.0614,0.039670
916.9251,0.039972
918.7888,0.040399
920.6524,0.040789
922.5161,0.041098
924.3798,0.041450
926.2435,0.041656
928.1071,0.041731
929.9708,0.041933
931.8345,0.042134
933.6981,0.042151
935.5618,0.042034
937.4255,0.042008
939.2891,0.042131
941.1528,0.042179
943.0165,0.042114
944.8801,0.041989
946.7438,0.041906
948.6075,0.041749
950.4711,0.041501
952.3348,0.041405
954.1985,0.041527
956.0622,0.041662
957.9258,0.041781
959.7895,0.041996
961.6532,0.042471
963.5168,0.042994
965.3805,0.043481
967.2442,0.044060
969.1078,0.044709
970.9715,0.045220
972.8352,0.045637
974.6988,0.046134
976.5625,0.046570
978.4262,0.046938
980.2899,0.047404
982.1535,0.047851
984.0172,0.048114
985.8809,0.048160
987.7445,0.048139
989.6082,0.048187
991.4719,0.048212
993.3355,0.048117
995.1992,0.048029
997.0629,0.047983
998.9265,0.047859
1000.7902,0.047770
1002.6539,0.047758
1004.5175,0.047858
1006.3812,0.048097
1008.2449,0.048531
1010.1086,0.049102
1011.9722,0.049753
1013.8359,0.050680
1015.6996,0.051707
1017.5632,0.052681
1019.4269,0.053653
1021.2906,0.054579
1023.1542,0.055431
1025.0179,0.056299
1026.8816,0.057187
1028.7452,0.057994
1030.6089,0.058777
1032.4726,0.059574
1034.3362,0.060307
1036.1999,0.060963
1038.0636,0.061620
1039.9273,0.062169
1041.7909,0.062620
1043.6546,0.063065
1045.5183,0.063447
1047.3819,0.063868
1049.2456,0.064300
1051.1093,0.064719
1052.9729,0.065202
1054.8366,0.065645
1056.7003,0.066061
1058.5639,0.066545
1060.4276,0.067099
1062.2913,0.067530
1064.1550,0.067927
1066.0186,0.068379
1067.8823,0.068779
1069.7460,0.069042
1071.6096,0.069151
1073.4733,0.069233
1075.3370,0.069166
1077.2006,0.068774
1079.0643,0.068183
1080.9280,0.067456
1082.7916,0.066544
1084.6553,0.065561
1086.5190,0.064490
1088.3826,0.063400
1090.2463,0.062320
1092.1100,0.061407
1093.9737,0.060732
1095.8373,0.059971
1097.7010,0.059147
1099.5647,0.058339
1101.4283,0.057504
1103.2920,0.056799
1105.1557,0.056246
1107.0193,0.055669
1108.8830,0.055101
1110.7467,0.054541
1112.6103,0.053977
1114.4740,0.053426
1116.3377,0.052858
1118.2014,0.052242
1120.0650,0.051543
1121.9287,0.050870
1123.7924,0.050273
1125.6560,0.049561
1127.5197,0.048792
1129.3834,0.048095
1131.2470,0.047434
1133.1107,0.046652
1134.9744,0.045886
1136.8380,0.045187
1138.7017,0.044503
1140.5654,0.043915
1142.4290,0.043312
1144.2927,0.042759
1146.1564,0.042330
1148.0201,0.041976
1149.8837,0.041597
1151.7474,0.041250
1153.6111,0.041010
1155.4747,0.040631
1157.3384,0.040060
1159.2021,0.039415
1161.0657,0.038709
1162.9294,0.038085
1164.7931,0.037371
1166.6567,0.036495
1168.5204,0.035495
1170.3841,0.034494
1172.2477,0.033481
1174.1114,0.032421
1175.9751,0.031377
1177.8388,0.030332
1179.7024,0.029460
1181.5661,0.028818
1183.4298,0.028258
1185.2934,0.027842
1187.1571,0.027612
1189.0208,0.027398
1190.8844,0.027202
1192.7481,0.027064
1194.6118,0.027004
1196.4754,0.027103
1198.3391,0.027274
1200.2028,0.027398
1202.0665,0.027558
1203.9301,0.027740
1205.7938,0.027837
1207.6575,0.027959
1209.5211,0.028087
1211.3848,0.028244
1213.2485,0.028421
1215.1121,0.028594
1216.9758,0.028834
1218.8395,0.029094
1220.7031,0.029519
1222.5668,0.030056
1224.4305,0.030519
1226.2941,0.030915
1228.1578,0.031330
1230.0215,0.031764
1231.8852,0.032087
1233.7488,0.032368
1235.6125,0.032646
1237.4762,0.032843
1239.3398,0.032926
1241.2035,0.032956
1243.0672,0.032840
1244.9308,0.032715
1246.7945,0.032609
1248.6582,0.032420
1250.5218,0.032108
1252.3855,0.031680
1254.2492,0.031352
1256.1129,0.031132
1257.9765,0.030896
1259.8402,0.030607
1261.7039,0.030369
1263.5675,0.030194
1265.4312,0.030077
1267.2949,0.030028
1269.1585,0.029889
1271.0222,0.029726
1272.8859,0.029586
1274.7495,0.029458
1276.6132,0.029331
1278.4769,0.029203
1280.3405,0.029112
1282.2042,0.029031
1284.0679,0.028897
1285.9316,0.028710
1287.7952,0.028552
1289.6589,0.028558
1291.5226,0.028599
1293.3862,0.028551
1295.2499,0.028436
1297.1136,0.028425
1298.9772,0.028546
1300.8409,0.028731
1302.7046,0.028887
1304.5682,0.028998
1306.4319,0.029201
1308.2956,0.029380
1310.1592,0.029497
1312.0229,0.029606
1313.8866,0.029663
1315.7503,0.029725
1317.6139,0.029769
1319.4776,0.029716
1321.3413,0.029633
1323.2049,0.029445
1325.0686,0.029156
1326.9323,0.029062
1328.7959,0.029149
1330.6596,0.029149
1332.5233,0.028963
1334.3869,0.028874
1336.2506,0.028922
1338.1143,0.028988
1339.9780,0.028983
1341.8416,0.028767
1343.7053,0.028593
1345.5690,0.028633
1347.4326,0.028726
1349.2963,0.028684
1351.1600,0.028592
1353.0236,0.028565
1354.8873,0.028593
1356.7510,0.028433
1358.6146,0.028342
1360.4783,0.028683
1362.3420,0.029175
1364.2056,0.029361
1366.0693,0.029731
1367.9330,0.030288
1369.7967,0.030726
1371.6603,0.031307
1373.5240,0.032142
1375.3877,0.032827
1377.2513,0.033243
1379.1150,0.033773
1380.9787,0.034199
1382.8423,0.034551
1384.7060,0.035191
1386.5697,0.036042
1388.4333,0.036543
1390.2970,0.036818
1392.1607,0.037405
1394.0244,0.038212
1395.8880,0.038887
1397.7517,0.039385
1399.6154,0.039530
1401.4790,0.039531
1403.3427,0.039712
1405.2064,0.039755
1407.0700,0.039278
1408.9337,0.038575
1410.7974,0.037842
1412.6610,0.037122
1414.5247,0.036300
1416.3884,0.035739
1418.2520,0.035443
1420.1157,0.034603
1421.9794,0.033836
1423.8431,0.033300
1425.7067,0.032828
1427.5704,0.032735
1429.4341,0.032735
1431.2977,0.032778
1433.1614,0.033103
1435.0251,0.034007
1436.8887,0.034917
1438.7524,0.034928
1440.6161,0.034957
1442.4797,0.035364
1444.3434,0.035655
1446.2071,0.035886
1448.0707,0.035990
1449.9344,0.035935
1451.7981,0.035613
1453.6618,0.035433
1455.5254,0.035776
1457.3891,0.035463
1459.2528,0.033937
1461.1164,0.033013
1462.9801,0.032609
1464.8438,0.032203
1466.7074,0.031353
1468.5711,0.030572
1470.4348,0.030195
1472.2984,0.029800
1474.1621,0.028955
1476.0258,0.028162
1477.8895,0.027560
1479.7531,0.027211
1481.6168,0.027057
1483.4805,0.026972
1485.3441,0.027167
1487.2078,0.028068
1489.0715,0.029250
1490.9351,0.029810
1492.7988,0.030211
1494.6625,0.031312
1496.5261,0.033135
1498.3898,0.034422
1500.2535,0.034991
1502.1171,0.035665
1503.9808,0.037067
1505.8445,0.040053
1507.7082,0.043045
1509.5718,0.043756
1511.4355,0.044769
1513.2992,0.046265
1515.1628,0.047825
1517.0265,0.048975
1518.8902,0.049835
1520.7538,0.050913
1522.6175,0.052191
1524.4812,0.052904
1526.3448,0.053784
1528.2085,0.054351
1530.0722,0.055047
1531.9359,0.056173
1533.7995,0.056878
1535.6632,0.056980
1537.5269,0.057720
1539.3905,0.059344
1541.2542,0.059930
1543.1179,0.059450
1544.9815,0.059018
1546.8452,0.058428
1548.7089,0.057950
1550.5725,0.057097
1552.4362,0.055820
1554.2999,0.054459
1556.1635,0.054132
1558.0272,0.054682
1559.8909,0.052992
1561.7546,0.050651
1563.6182,0.049224
1565.4819,0.048201
1567.3456,0.047646
1569.2092,0.046784
1571.0729,0.045364
1572.9366,0.044624
1574.8002,0.044649
1576.6639,0.044474
1578.5276,0.043574
1580.3912,0.043035
1582.2549,0.042989
1584.1186,0.042984
1585.9822,0.043103
1587.8459,0.043362
1589.7096,0.043930
1591.5733,0.044788
1593.4369,0.045515
1595.3006,0.046303
1597.1643,0.047115
1599.0279,0.048135
1600.8916,0.049380
1602.7553,0.050875
1604.6189,0.052294
1606.4826,0.053854
1608.3463,0.055663
1610.2099,0.057344
1612.0736,0.058963
1613.9373,0.060844
1615.8010,0.063307
1617.6646,0.065559
1619.5283,0.066882
1621.3920,0.068719
1623.2556,0.071027
1625.1193,0.072937
1626.9830,0.074549
1628.8466,0.075920
1630.7103,0.076672
1632.5740,0.077470
1634.4376,0.078753
1636.3013,0.079544
1638.1650,0.079371
1640.0286,0.078718
1641.8923,0.077958
1643.7560,0.077589
1645.6197,0.077422
1647.4833,0.076009
1649.3470,0.074788
1651.2107,0.074581
1653.0743,0.073844
1654.9380,0.071201
1656.8017,0.069157
1658.6653,0.067424
1660.5290,0.065730
1662.3927,0.063781
1664.2563,0.061547
1666.1200,0.059593
1667.9837,0.057932
1669.8474,0.055526
1671.7110,0.053132
1673.5747,0.051120
1675.4384,0.048759
1677.3020,0.046356
1679.1657,0.044320
1681.0294,0.042274
1682.8930,0.040157
1684.7567,0.036785
1686.6204,0.034436
1688.4840,0.032397
1690.3477,0.029980
1692.2114,0.027803
1694.0750,0.025880
1695.9387,0.023307
1697.8024,0.021334
1699.6661,0.019136
1701.5297,0.016797
1703.3934,0.015878
1705.2571,0.014790
1707.1207,0.013402
1708.9844,0.012589
1710.8481,0.012057
1712.7117,0.011685
1714.5754,0.011311
1716.4391,0.010856
1718.3027,0.009967
1720.1664,0.009477
1722.0301,0.009023
1723.8937,0.008474
1725.7574,0.008056
1727.6211,0.007680
1729.4848,0.007200
1731.3484,0.007042
1733.2121,0.006211
1735.0758,0.005250
1736.9394,0.005190
1738.8031,0.004799
1740.6668,0.004123
1742.5304,0.003710
1744.3941,0.003388
1746.2578,0.003501
1748.1214,0.003439
1749.9851,0.002915
1751.8488,0.002521
1753.7125,0.002406
1755.5761,0.002049
1757.4398,0.001837
1759.3035,0.001974
1761.1671,0.001788
1763.0308,0.001352
1764.8945,0.001357
1766.7581,0.001390
1768.6218,0.001407
1770.4855,0.001380
1772.3491,0.001365
1774.2128,0.001172
1776.0765,0.000969
1777.9401,0.001127
1779.8038,0.001210
1781.6675,0.001199
1783.5312,0.000996
1785.3948,0.000758
1787.2585,0.000807
1789.1222,0.000999
1790.9858,0.000997
1792.8495,0.000841
1794.7132,0.000725
1796.5768,0.000752
1798.4405,0.000792
1800.3042,0.000656
1802.1678,0.000417
1804.0315,0.000328
1805.8952,0.000363
1807.7589,0.000385
1809.6225,0.000308
1811.4862,0.000258
1813.3499,0.000360
1815.2135,0.000129
1817.0772,-0.000028
1818.9409,0.000236
1820.8045,0.000409
1822.6682,0.000209
1824.5319,0.000237
1826.3955,0.000546
1828.2592,0.000424
1830.1229,0.000504
1831.9865,0.000449
1833.8502,0.000065
1835.7139,0.000230
1837.5776,0.000491
1839.4412,0.000311
1841.3049,0.000089
1843.1686,0.000066
1845.0322,0.000298
1846.8959,0.000257
1848.7596,0.000097
1850.6232,0.000296
1852.4869,0.000437
1854.3506,0.000298
1856.2142,0.000172
1858.0779,0.000395
1859.9416,0.000452
1861.8052,0.000196
1863.6689,0.000305
1865.5326,0.000447
1867.3963,0.000350
1869.2599,0.000223
1871.1236,-0.000142
1872.9873,-0.000195
1874.8509,0.000166
1876.7146,0.000273
1878.5783,0.000513
1880.4419,0.000754
1882.3056,0.000464
1884.1693,0.000449
1886.0329,0.000409
1887.8966,0.000208
1889.7603,0.000127
1891.6240,0.000170
1893.4876,0.000482
1895.3513,0.000701
1897.2150,0.000748
1899.0786,0.000608
1900.9423,0.000416
1902.8060,0.000709
1904.6696,0.000670
1906.5333,0.000171
1908.3970,0.000510
1910.2606,0.000718
1912.1243,0.000494
1913.9880,0.000606
1915.8516,0.000632
1917.7153,0.000583
1919.5790,0.000741
1921.4427,0.000968
1923.3063,0.000903
1925.1700,0.000306
1927.0337,0.000054
1928.8973,0.000247
1930.7610,0.000389
1932.6247,0.000750
1934.4883,0.001108
1936.3520,0.000871
1938.2157,0.000421
1940.0793,0.000645
1941.9430,0.001447
1943.8067,0.002285
1945.6704,0.002050
1947.5340,0.001104
1949.3977,0.001561
1951.2614,0.001792
1953.1250,0.001482
1954.9887,0.001632
1956.8524,0.001236
1958.7160,0.001418
1960.5797,0.002186
1962.4434,0.002594
1964.3070,0.002965
1966.1707,0.003701
1968.0344,0.002795
1969.8980,0.001323
1971.7617,0.001510
1973.6254,0.002169
1975.4891,0.002729
1977.3527,0.003905
1979.2164,0.004227
1981.0801,0.004138
1982.9437,0.004403
1984.8074,0.003248
1986.6711,0.001985
1988.5347,0.002488
1990.3984,0.003661
1992.2621,0.005049
1994.1257,0.004206
1995.9894,0.002306
1997.8531,0.001871
1999.7167,0.001349
2001.5804,0.001535
2003.4441,0.002875
2005.3078,0.003443
2007.1714,0.003381
2009.0351,0.003540
2010.8988,0.003201
2012.7624,0.003287
2014.6261,0.003998
2016.4898,0.004261
2018.3534,0.004183
2020.2171,0.004673
2022.0808,0.004727
2023.9444,0.003111
2025.8081,0.003109
2027.6718,0.004497
2029.5355,0.004912
2031.3991,0.004292
2033.2628,0.003828
2035.1265,0.004761
2036.9901,0.004977
2038.8538,0.004627
2040.7175,0.005358
2042.5811,0.005541
2044.4448,0.005760
2046.3085,0.005670
2048.1721,0.005886
2050.0358,0.006520
2051.8995,0.006408
2053.7631,0.005112
2055.6268,0.004340
2057.4905,0.004698
2059.3542,0.004944
2061.2178,0.004560
2063.0815,0.004075
2064.9452,0.004717
2066.8088,0.005563
2068.6725,0.005638
2070.5362,0.004661
2072.3998,0.004043
2074.2635,0.005033
2076.1272,0.005853
2077.9908,0.005152
2079.8545,0.004170
2081.7182,0.004051
2083.5819,0.004240
2085.4455,0.004326
2087.3092,0.004411
2089.1729,0.004188
2091.0365,0.003411
2092.9002,0.003154
2094.7639,0.003097
2096.6275,0.003506
2098.4912,0.003928
2100.3549,0.003766
2102.2185,0.004260
2104.0822,0.004446
2105.9459,0.003835
2107.8095,0.003513
2109.6732,0.003482
2111.5369,0.003903
2113.4006,0.004476
2115.2642,0.004338
2117.1279,0.004091
2118.9916,0.003920
2120.8552,0.003372
2122.7189,0.003133
2124.5826,0.003222
2126.4462,0.003436
2128.3099,0.003549
2130.1736,0.002877
2132.0372,0.002163
2133.9009,0.002598
2135.7646,0.003657
2137.6282,0.004575
2139.4919,0.004767
2141.3556,0.004374
2143.2193,0.003501
2145.0829,0.003156
2146.9466,0.003779
2148.8103,0.004284
2150.6739,0.005081
2152.5376,0.006022
2154.4013,0.005491
2156.2649,0.004704
2158.1286,0.004914
2159.9923,0.006482
2161.8559,0.008146
2163.7196,0.007869
2165.5833,0.006741
2167.4470,0.006598
2169.3106,0.006669
2171.1743,0.006332
2173.0380,0.005556
2174.9016,0.004895
2176.7653,0.005663
2178.6290,0.006579
2180.4926,0.006154
2182.3563,0.005536
2184.2200,0.005421
2186.0836,0.005853
2187.9473,0.006332
2189.8110,0.006576
2191.6746,0.006333
2193.5383,0.006112
2195.4020,0.006737
2197.2657,0.007360
2199.1293,0.007133
2200.9930,0.007129
2202.8567,0.007241
2204.7203,0.006334
2206.5840,0.005324
2208.4477,0.005075
2210.3113,0.005251
2212.1750,0.005171
2214.0387,0.005162
2215.9023,0.005986
2217.7660,0.006412
2219.6297,0.005894
2221.4934,0.006142
2223.3570,0.007046
2225.2207,0.007147
2227.0844,0.007125
2228.9480,0.006436
2230.8117,0.005589
2232.6754,0.006367
2234.5390,0.006945
2236.4027,0.006978
2238.2664,0.006989
2240.1300,0.006557
2241.9937,0.006438
2243.8574,0.006271
2245.7210,0.006245
2247.5847,0.006542
2249.4484,0.006732
2251.3121,0.006377
2253.1757,0.005606
2255.0394,0.005470
2256.9031,0.005890
2258.7667,0.005900
2260.6304,0.005685
2262.4941,0.005918
2264.3577,0.006140
2266.2214,0.006231
2268.0851,0.006976
2269.9487,0.007785
2271.8124,0.007443
2273.6761,0.006925
2275.5397,0.007141
2277.4034,0.007404
2279.2671,0.007114
2281.1308,0.006932
2282.9944,0.007060
2284.8581,0.007079
2286.7218,0.006941
2288.5854,0.006567
2290.4491,0.006314
2292.3128,0.006273
2294.1764,0.006462
2296.0401,0.006653
2297.9038,0.006399
2299.7674,0.006063
2301.6311,0.006197
2303.4948,0.006563
2305.3585,0.006538
2307.2221,0.006185
2309.0858,0.006184
2310.9495,0.006421
2312.8131,0.006479
2314.6768,0.006532
2316.5405,0.006422
2318.4041,0.006466
2320.2678,0.006838
2322.1315,0.007436
2323.9951,0.007602
2325.8588,0.006720
2327.7225,0.005960
2329.5861,0.005921
2331.4498,0.005736
2333.3135,0.005713
2335.1772,0.006018
2337.0408,0.006023
2338.9045,0.006340
2340.7682,0.006798
2342.6318,0.006508
2344.4955,0.006153
2346.3592,0.006060
2348.2228,0.006005
2350.0865,0.006025
2351.9502,0.006215
2353.8138,0.006485
2355.6775,0.006291
2357.5412,0.006155
2359.4049,0.007018
2361.2685,0.007220
2363.1322,0.005756
2364.9959,0.005750
2366.8595,0.006728
2368.7232,0.007085
2370.5869,0.007121
2372.4505,0.006503
2374.3142,0.006131
2376.1779,0.006360
2378.0415,0.006512
2379.9052,0.006209
2381.7689,0.005978
2383.6325,0.006156
2385.4962,0.006185
2387.3599,0.006221
2389.2236,0.006399
2391.0872,0.006268
2392.9509,0.006079
2394.8146,0.006194
2396.6782,0.006159
2398.5419,0.006111
2400.4056,0.006372
2402.2692,0.006470
2404.1329,0.006356
2405.9966,0.006277
2407.8602,0.006369
2409.7239,0.006452
2411.5876,0.006525
2413.4512,0.006628
2415.3149,0.006580
2417.1786,0.006618
2419.0423,0.006594
2420.9059,0.006330
2422.7696,0.006436
2424.6333,0.006839
2426.4969,0.006925
2428.3606,0.006977
2430.2243,0.006987
2432.0879,0.006946
2433.9516,0.007007
2435.8153,0.006920
2437.6789,0.006871
2439.5426,0.006947
2441.4063,0.007018
2443.2700,0.007118
2445.1336,0.007116
2446.9973,0.007003
2448.8610,0.007228
2450.7246,0.007465
2452.5883,0.007125
2454.4520,0.006810
2456.3156,0.006926
2458.1793,0.006958
2460.0430,0.006714
2461.9066,0.006706
2463.7703,0.007041
2465.6340,0.007082
2467.4976,0.006695
2469.3613,0.006646
2471.2250,0.006898
2473.0887,0.006901
2474.9523,0.006880
2476.8160,0.006966
2478.6797,0.007180
2480.5433,0.007162
2482.4070,0.006904
2484.2707,0.006822
2486.1343,0.006711
2487.9980,0.006446
2489.8617,0.006333
2491.7253,0.006534
2493.5890,0.006711
2495.4527,0.006459
2497.3164,0.006350
2499.1800,0.006523
2501.0437,0.006699
2502.9074,0.006901
2504.7710,0.007028
2506.6347,0.006914
2508.4984,0.006754
2510.3620,0.006827
2512.2257,0.006993
2514.0894,0.006707
2515.9530,0.006438
2517.8167,0.006380
2519.6804,0.006407
2521.5440,0.006280
2523.4077,0.006533
2525.2714,0.006928
2527.1351,0.006868
2528.9987,0.006834
2530.8624,0.006772
2532.7261,0.006651
2534.5897,0.006655
2536.4534,0.006751
2538.3171,0.006872
2540.1807,0.006840
2542.0444,0.006837
2543.9081,0.006637
2545.7717,0.006734
2547.6354,0.006856
2549.4991,0.006579
2551.3627,0.006447
2553.2264,0.006757
2555.0901,0.007118
2556.9538,0.007336
2558.8174,0.007397
2560.6811,0.007152
2562.5448,0.006993
2564.4084,0.007020
2566.2721,0.007058
2568.1358,0.007032
2569.9994,0.007029
2571.8631,0.007168
2573.7268,0.007232
2575.5904,0.007354
2577.4541,0.007755
2579.3178,0.007869
2581.1815,0.007576
2583.0451,0.007586
2584.9088,0.007410
2586.7725,0.007368
2588.6361,0.007494
2590.4998,0.007487
2592.3635,0.007635
2594.2271,0.007718
2596.0908,0.007780
2597.9545,0.007947
2599.8181,0.007953
2601.6818,0.008055
2603.5455,0.008127
2605.4091,0.008122
2607.2728,0.008229
2609.1365,0.008471
2611.0002,0.008607
2612.8638,0.008493
2614.7275,0.008463
2616.5912,0.008415
2618.4548,0.008471
2620.3185,0.008713
2622.1822,0.008725
2624.0458,0.008837
2625.9095,0.008993
