Wavenumber,Intensity
650.4205,0.040627
652.2841,0.040564
654.1478,0.038729
656.0115,0.036891
657.8751,0.037180
659.7388,0.038423
661.6025,0.038960
663.4661,0.038278
665.3298,0.037295
667.1935,0.034908
669.0571,0.034431
670.9208,0.036898
672.7845,0.037882
674.6481,0.036346
676.5118,0.034663
678.3755,0.034690
680.2392,0.034916
682.1028,0.035528
683.9665,0.036452
685.8302,0.036539
687.6938,0.034776
689.5575,0.033551
691.4212,0.033898
693.2848,0.034263
695.1485,0.035051
697.0122,0.034725
698.8758,0.033124
700.7395,0.032501
702.6032,0.032462
704.4669,0.032066
706.3305,0.032099
708.1942,0.032475
710.0579,0.032473
711.9215,0.032068
713.7852,0.031035
715.6489,0.030075
717.5125,0.029855
719.3762,0.029846
721.2399,0.029748
723.1035,0.029220
724.9672,0.028812
726.8309,0.028933
728.6945,0.028519
730.5582,0.027904
732.4219,0.027987
734.2856,0.027800
736.1492,0.027227
738.0129,0.026883
739.8766,0.026852
741.7402,0.027361
743.6039,0.027725
745.4676,0.027427
747.3312,0.027075
749.1949,0.027046
751.0586,0.027170
752.9222,0.026764
754.7859,0.025967
756.6496,0.025709
758.5132,0.025915
760.3769,0.026263
762.2406,0.025977
764.1043,0.025631
765.9679,0.025894
767.8316,0.025535
769.6953,0.025027
771.5589,0.025116
773.4226,0.025134
775.2863,0.025028
777.1499,0.024673
779.0136,0.024079
780.8773,0.023907
782.7409,0.023812
784.6046,0.023642
786.4683,0.023319
788.3320,0.022829
790.1956,0.022725
792.0593,0.022696
793.9230,0.022849
795.7866,0.022779
797.6503,0.022070
799.5140,0.021652
801.3776,0.021919
803.2413,0.022122
805.1050,0.021930
806.9686,0.021945
808.8323,0.022125
810.6960,0.021867
812.5596,0.021752
814.4233,0.021930
816.2870,0.021780
818.1507,0.021526
820.0143,0.021279
821.8780,0.020863
823.7417,0.020472
825.6053,0.020186
827.4690,0.019684
829.3327,0.019066
831.1963,0.018856
833.0600,0.018591
834.9237,0.018009
836.7873,0.017792
838.6510,0.017757
840.5147,0.017451
842.3784,0.016999
844.2420,0.016554
846.1057,0.016187
847.9694,0.016106
849.8330,0.016160
851.6967,0.016125
853.5604,0.015977
855.4240,0.015937
857.2877,0.015981
859.1514,0.016043
861.0150,0.016181
862.8787,0.016401
864.7424,0.016586
866.6060,0.016805
868.4697,0.016977
870.3334,0.017015
872.1971,0.017262
874.0607,0.017452
875.9244,0.017458
877.7881,0.017331
879.6517,0.017005
881.5154,0.016851
883.3791,0.016907
885.2427,0.016783
887.1064,0.016500
888.9701,0.016511
890.8337,0.016781
892.6974,0.017008
894.5611,0.017011
896.4247,0.016774
898.2884,0.016556
900.1521,0.016381
902.0158,0.016150
903.8794,0.015848
905.7431,0.015509
907.6068,0.015367
909.4704,0.015528
911.3341,0.015708
913.1978,0.015813
915.0614,0.015860
916.9251,0.015967
918.7888,0.016188
920.6524,0.016301
922.5161,0.016350
924.3798,0.016389
926.2435,0.016421
928.1071,0.016489
929.9708,0.016486
931.8345,0.016502
933.6981,0.016620
935.5618,0.016777
937.4255,0.016953
939.2891,0.017261
941.1528,0.017685
943.0165,0.018088
944.8801,0.018387
946.7438,0.018652
948.6075,0.018879
950.4711,0.018848
952.3348,0.018648
954.1985,0.018655
956.0622,0.019001
957.9258,0.019531
959.7895,0.020288
961.6532,0.021117
963.5168,0.021842
965.3805,0.022582
967.2442,0.023238
969.1078,0.023396
970.9715,0.023221
972.8352,0.023130
974.6988,0.023232
976.5625,0.023408
978.4262,0.023675
980.2899,0.024181
982.1535,0.024894
984.0172,0.025482
985.8809,0.025972
987.7445,0.026524
989.6082,0.027124
991.4719,0.027830
993.3355,0.028571
995.1992,0.029231
997.0629,0.029760
998.9265,0.030332
1000.7902,0.030868
1002.6539,0.031472
1004.5175,0.032229
1006.3812,0.032986
1008.2449,0.033904
1010.1086,0.035122
1011.9722,0.036394
1013.8359,0.037703
1015.6996,0.039002
1017.5632,0.040251
1019.4269,0.041208
1021.2906,0.041774
1023.1542,0.042224
1025.0179,0.042612
1026.8816,0.043079
1028.7452,0.043458
1030.6089,0.043736
1032.4726,0.043986
1034.3362,0.043988
1036.1999,0.043898
1038.0636,0.043856
1039.9273,0.043664
1041.7909,0.043250
1043.6546,0.042858
1045.5183,0.042588
1047.3819,0.042310
1049.2456,0.042060
1051.1093,0.041917
1052.9729,0.041911
1054.8366,0.041961
1056.7003,0.041922
1058.5639,0.041936
1060.4276,0.042005
1062.2913,0.042176
1064.1550,0.042430
1066.0186,0.042623
1067.8823,0.042677
1069.7460,0.042620
1071.6096,0.042503
1073.4733,0.042208
1075.3370,0.041672
1077.2006,0.040943
1079.0643,0.039978
1080.9280,0.038692
1082.7916,0.037320
1084.6553,0.036002
1086.5190,0.034620
1088.3826,0.033319
1090.2463,0.032211
1092.1100,0.031329
1093.9737,0.030532
1095.8373,0.029784
1097.7010,0.029251
1099.5647,0.028715
1101.4283,0.028242
1103.2920,0.028007
1105.1557,0.027858
1107.0193,0.027792
1108.8830,0.027732
1110.7467,0.027718
1112.6103,0.027645
1114.4740,0.027540
1116.3377,0.027326
1118.2014,0.027054
1120.0650,0.026820
1121.9287,0.026448
1123.7924,0.026041
1125.6560,0.025800
1127.5197,0.025479
1129.3834,0.025089
1131.2470,0.024701
1133.1107,0.024324
1134.9744,0.023863
1136.8380,0.023300
1138.7017,0.022819
1140.5654,0.022406
1142.4290,0.022068
1144.2927,0.021933
1146.1564,0.021952
1148.0201,0.021937
1149.8837,0.021957
1151.7474,0.022011
1153.6111,0.022071
1155.4747,0.022074
1157.3384,0.021945
1159.2021,0.021802
1161.0657,0.021602
1162.9294,0.021301
1164.7931,0.020947
1166.6567,0.020465
1168.5204,0.019835
1170.3841,0.019053
1172.2477,0.018132
1174.1114,0.017125
1175.9751,0.016153
1177.8388,0.015358
1179.7024,0.014669
1181.5661,0.014211
1183.4298,0.013999
1185.2934,0.013943
1187.1571,0.014134
1189.0208,0.014425
1190.8844,0.014690
1192.7481,0.014997
1194.6118,0.015398
1196.4754,0.015945
1198.3391,0.016566
1200.2028,0.017225
1202.0665,0.017810
1203.9301,0.018337
1205.7938,0.018831
1207.6575,0.019358
1209.5211,0.019845
1211.3848,0.020172
1213.2485,0.020453
1215.1121,0.020837
1216.9758,0.021327
1218.8395,0.021855
1220.7031,0.022330
1222.5668,0.022675
1224.4305,0.023044
1226.2941,0.023403
1228.1578,0.023665
1230.0215,0.023990
1231.8852,0.024180
1233.7488,0.024228
1235.6125,0.024215
1237.4762,0.024163
1239.3398,0.024125
1241.2035,0.024111
1243.0672,0.023942
1244.9308,0.023675
1246.7945,0.023424
1248.6582,0.023194
1250.5218,0.022878
1252.3855,0.022588
1254.2492,0.022383
1256.1129,0.022144
1257.9765,0.021843
1259.8402,0.021487
1261.7039,0.021228
1263.5675,0.021018
1265.4312,0.020721
1267.2949,0.020554
1269.1585,0.020398
1271.0222,0.020227
1272.8859,0.020119
1274.7495,0.019895
1276.6132,0.019742
1278.4769,0.019705
1280.3405,0.019567
1282.2042,0.019449
1284.0679,0.019402
1285.9316,0.019354
1287.7952,0.019276
1289.6589,0.019252
1291.5226,0.019277
1293.3862,0.019352
1295.2499,0.019489
1297.1136,0.019710
1298.9772,0.019888
1300.8409,0.020016
1302.7046,0.020193
1304.5682,0.020449
1306.4319,0.020785
1308.2956,0.021014
1310.1592,0.021139
1312.0229,0.021298
1313.8866,0.021362
1315.7503,0.021289
1317.6139,0.021304
1319.4776,0.021295
1321.3413,0.021141
1323.2049,0.020908
1325.0686,0.020717
1326.9323,0.020577
1328.7959,0.020500
1330.6596,0.020399
1332.5233,0.020279
1334.3869,0.020313
1336.2506,0.020371
1338.1143,0.020618
1339.9780,0.020885
1341.8416,0.020995
1343.7053,0.020856
1345.5690,0.020857
1347.4326,0.020847
1349.2963,0.020816
1351.1600,0.020998
1353.0236,0.021184
1354.8873,0.021333
1356.7510,0.021600
1358.6146,0.021855
1360.4783,0.022261
1362.3420,0.023156
1364.2056,0.024083
1366.0693,0.024651
1367.9330,0.025358
1369.7967,0.026010
1371.6603,0.026489
1373.5240,0.027137
1375.3877,0.027819
1377.2513,0.027971
1379.1150,0.028036
1380.9787,0.028034
1382.8423,0.028007
1384.7060,0.028001
1386.5697,0.028262
1388.4333,0.028641
1390.2970,0.028629
1392.1607,0.028513
1394.0244,0.028696
1395.8880,0.029201
1397.7517,0.029428
1399.6154,0.029821
1401.4790,0.029772
1403.3427,0.029415
1405.2064,0.029440
1407.0700,0.029167
1408.9337,0.028690
1410.7974,0.028250
1412.6610,0.027832
1414.5247,0.027151
1416.3884,0.026552
1418.2520,0.026455
1420.1157,0.026573
1421.9794,0.026034
1423.8431,0.025780
1425.7067,0.025728
1427.5704,0.025566
1429.4341,0.025833
1431.2977,0.026096
1433.1614,0.025890
1435.0251,0.025828
1436.8887,0.026798
1438.7524,0.027262
1440.6161,0.027013
1442.4797,0.026964
1444.3434,0.026750
1446.2071,0.026684
1448.0707,0.026965
1449.9344,0.026809
1451.7981,0.026024
1453.6618,0.025346
1455.5254,0.024937
1457.3891,0.025624
1459.2528,0.025283
1461.1164,0.024111
1462.9801,0.023235
1464.8438,0.023291
1466.7074,0.023054
1468.5711,0.022170
1470.4348,0.021277
1472.2984,0.021097
1474.1621,0.021068
1476.0258,0.020554
1477.8895,0.020240
1479.7531,0.019977
1481.6168,0.020038
1483.4805,0.020095
1485.3441,0.020143
1487.2078,0.020804
1489.0715,0.022229
1490.9351,0.023737
1492.7988,0.024164
1494.6625,0.024683
1496.5261,0.026635
1498.3898,0.028431
1500.2535,0.029216
1502.1171,0.029415
1503.9808,0.029451
1505.8445,0.031548
1507.7082,0.035753
1509.5718,0.036473
1511.4355,0.036930
1513.2992,0.037793
1515.1628,0.038277
1517.0265,0.039046
1518.8902,0.039316
1520.7538,0.039690
1522.6175,0.041051
1524.4812,0.040954
1526.3448,0.041383
1528.2085,0.041890
1530.0722,0.041801
1531.9359,0.041798
1533.7995,0.042926
1535.6632,0.042637
1537.5269,0.041393
1539.3905,0.041951
1541.2542,0.043321
1543.1179,0.042998
1544.9815,0.042685
1546.8452,0.041915
1548.7089,0.040954
1550.5725,0.040379
1552.4362,0.039319
1554.2999,0.038303
1556.1635,0.036940
1558.0272,0.035912
1559.8909,0.037050
1561.7546,0.035827
1563.6182,0.034079
1565.4819,0.032796
1567.3456,0.031605
1569.2092,0.030785
1571.0729,0.030149
1572.9366,0.028804
1574.8002,0.027659
1576.6639,0.027768
1578.5276,0.027396
1580.3912,0.026326
1582.2549,0.025949
1584.1186,0.025784
1585.9822,0.025624
1587.8459,0.025697
1589.7096,0.025877
1591.5733,0.026103
1593.4369,0.026590
1595.3006,0.027240
1597.1643,0.027973
1599.0279,0.028575
1600.8916,0.029273
1602.7553,0.030304
1604.6189,0.031489
1606.4826,0.032581
1608.3463,0.034030
1610.2099,0.035462
1612.0736,0.036637
1613.9373,0.037580
1615.8010,0.039421
1617.6646,0.041990
1619.5283,0.042560
1621.3920,0.043028
1623.2556,0.044690
1625.1193,0.046187
1626.9830,0.046844
1628.8466,0.047820
1630.7103,0.048357
1632.5740,0.047882
1634.4376,0.047787
1636.3013,0.049394
1638.1650,0.049319
1640.0286,0.047796
1641.8923,0.046580
1643.7560,0.045461
1645.6197,0.044861
1647.4833,0.044977
1649.3470,0.043529
1651.2107,0.041095
1653.0743,0.040971
1654.9380,0.041525
1656.8017,0.039900
1658.6653,0.038175
1660.5290,0.036786
1662.3927,0.035771
1664.2563,0.034727
1666.1200,0.033024
1667.9837,0.031437
1669.8474,0.030440
1671.7110,0.029380
1673.5747,0.027751
1675.4384,0.026523
1677.3020,0.025194
1679.1657,0.023456
1681.0294,0.021895
1682.8930,0.020188
1684.7567,0.018812
1686.6204,0.017639
1688.4840,0.016186
1690.3477,0.014606
1692.2114,0.012986
1694.0750,0.011099
1695.9387,0.009053
1697.8024,0.007460
1699.6661,0.005502
1701.5297,0.003941
1703.3934,0.002983
1705.2571,0.001879
1707.1207,0.000989
1708.9844,0.000457
1710.8481,-0.000066
1712.7117,-0.000456
1714.5754,-0.000991
1716.4391,-0.001740
1718.3027,-0.002496
1720.1664,-0.002565
1722.0301,-0.002740
1723.8937,-0.002988
1725.7574,-0.003197
1727.6211,-0.003302
1729.4848,-0.003442
1731.3484,-0.003532
1733.2121,-0.004229
1735.0758,-0.004595
1736.9394,-0.004479
1738.8031,-0.004911
1740.6668,-0.005357
1742.5304,-0.005243
1744.3941,-0.005145
1746.2578,-0.005338
1748.1214,-0.005664
1749.9851,-0.006134
1751.8488,-0.006472
1753.7125,-0.006397
1755.5761,-0.006453
1757.4398,-0.006536
1759.3035,-0.006430
1761.1671,-0.006700
1763.0308,-0.006883
1764.8945,-0.006636
1766.7581,-0.006621
1768.6218,-0.006598
1770.4855,-0.006887
1772.3491,-0.007322
1774.2128,-0.007138
1776.0765,-0.007131
1777.9401,-0.007132
1779.8038,-0.007152
1781.6675,-0.007188
1783.5312,-0.006993
1785.3948,-0.006957
1787.2585,-0.007096
1789.1222,-0.006985
1790.9858,-0.007092
1792.8495,-0.007220
1794.7132,-0.007125
1796.5768,-0.007161
1798.4405,-0.007200
1800.3042,-0.007291
1802.1678,-0.007237
1804.0315,-0.007288
1805.8952,-0.007396
1807.7589,-0.007314
1809.6225,-0.007352
1811.4862,-0.007391
1813.3499,-0.007159
1815.2135,-0.007340
1817.0772,-0.007623
1818.9409,-0.007430
1820.8045,-0.007268
1822.6682,-0.007119
1824.5319,-0.006902
1826.3955,-0.007086
1828.2592,-0.007331
1830.1229,-0.007143
1831.9865,-0.006941
1833.8502,-0.007065
1835.7139,-0.006936
1837.5776,-0.006820
1839.4412,-0.006888
1841.3049,-0.006876
1843.1686,-0.007106
1845.0322,-0.007134
1846.8959,-0.006988
1848.7596,-0.006856
1850.6232,-0.006758
1852.4869,-0.006876
1854.3506,-0.006892
1856.2142,-0.006816
1858.0779,-0.006926
1859.9416,-0.006864
1861.8052,-0.006593
1863.6689,-0.006699
1865.5326,-0.006901
1867.3963,-0.006831
1869.2599,-0.006561
1871.1236,-0.006350
1872.9873,-0.006477
1874.8509,-0.006721
1876.7146,-0.006672
1878.5783,-0.006536
1880.4419,-0.006337
1882.3056,-0.006337
1884.1693,-0.006358
1886.0329,-0.006289
1887.8966,-0.006469
1889.7603,-0.006678
1891.6240,-0.006426
1893.4876,-0.006371
1895.3513,-0.006455
1897.2150,-0.006113
1899.0786,-0.006033
1900.9423,-0.006179
1902.8060,-0.006295
1904.6696,-0.006484
1906.5333,-0.006481
1908.3970,-0.006546
1910.2606,-0.006504
1912.1243,-0.005955
1913.9880,-0.005491
1915.8516,-0.005476
1917.7153,-0.005899
1919.5790,-0.006002
1921.4427,-0.005933
1923.3063,-0.006058
1925.1700,-0.006085
1927.0337,-0.006019
1928.8973,-0.006086
1930.7610,-0.005841
1932.6247,-0.005738
1934.4883,-0.005809
1936.3520,-0.005066
1938.2157,-0.004456
1940.0793,-0.004757
1941.9430,-0.005475
1943.8067,-0.005701
1945.6704,-0.005174
1947.5340,-0.004852
1949.3977,-0.005241
1951.2614,-0.004813
1953.1250,-0.003838
1954.9887,-0.004127
1956.8524,-0.004761
1958.7160,-0.003726
1960.5797,-0.003421
1962.4434,-0.004559
1964.3070,-0.004452
1966.1707,-0.003175
1968.0344,-0.003419
1969.8980,-0.003747
1971.7617,-0.002409
1973.6254,-0.001545
1975.4891,-0.001378
1977.3527,-0.001029
1979.2164,-0.001419
1981.0801,-0.003151
1982.9437,-0.004039
1984.8074,-0.002471
1986.6711,-0.001174
1988.5347,-0.001916
1990.3984,-0.002579
1992.2621,-0.002764
1994.1257,-0.003050
1995.9894,-0.002888
1997.8531,-0.003480
1999.7167,-0.004180
2001.5804,-0.004218
2003.4441,-0.003655
2005.3078,-0.003770
2007.1714,-0.004125
2009.0351,-0.002829
2010.8988,-0.002471
2012.7624,-0.003109
2014.6261,-0.002126
2016.4898,-0.001260
2018.3534,-0.001830
2020.2171,-0.002119
2022.0808,-0.001963
2023.9444,-0.002639
2025.8081,-0.003242
2027.6718,-0.002526
2029.5355,-0.001346
2031.3991,-0.000777
2033.2628,-0.001014
2035.1265,-0.001352
2036.9901,-0.001145
2038.8538,-0.000928
2040.7175,-0.001450
2042.5811,-0.002068
2044.4448,-0.001919
2046.3085,-0.002165
2048.1721,-0.002372
2050.0358,-0.001527
2051.8995,-0.000618
2053.7631,-0.000893
2055.6268,-0.001721
2057.4905,-0.001998
2059.3542,-0.002258
2061.2178,-0.001821
2063.0815,-0.001735
2064.9452,-0.002863
2066.8088,-0.003562
2068.6725,-0.003366
2070.5362,-0.002837
2072.3998,-0.002175
2074.2635,-0.002054
2076.1272,-0.002388
2077.9908,-0.003121
2079.8545,-0.003369
2081.7182,-0.003047
2083.5819,-0.003254
2085.4455,-0.003525
2087.3092,-0.003460
2089.1729,-0.003069
2091.0365,-0.002762
2092.9002,-0.003320
2094.7639,-0.003941
2096.6275,-0.003375
2098.4912,-0.003351
2100.3549,-0.003788
2102.2185,-0.003752
2104.0822,-0.004137
2105.9459,-0.004479
2107.8095,-0.004171
2109.6732,-0.003586
2111.5369,-0.003296
2113.4006,-0.003069
2115.2642,-0.002723
2117.1279,-0.003252
2118.9916,-0.003976
2120.8552,-0.003896
2122.7189,-0.003769
2124.5826,-0.003661
2126.4462,-0.003716
2128.3099,-0.004122
2130.1736,-0.004343
2132.0372,-0.004834
2133.9009,-0.004902
2135.7646,-0.004104
2137.6282,-0.003727
2139.4919,-0.003393
2141.3556,-0.002948
2143.2193,-0.003382
2145.0829,-0.003660
2146.9466,-0.002924
2148.8103,-0.003020
2150.6739,-0.003481
2152.5376,-0.003035
2154.4013,-0.002910
2156.2649,-0.002423
2158.1286,-0.001512
2159.9923,-0.000863
2161.8559,-0.000370
2163.7196,0.000299
2165.5833,0.000970
2167.4470,0.000837
2169.3106,0.000079
2171.1743,-0.000709
2173.0380,-0.001115
2174.9016,-0.001147
2176.7653,-0.001439
2178.6290,-0.002214
2180.4926,-0.001523
2182.3563,0.000331
2184.2200,0.000336
2186.0836,-0.000958
2187.9473,-0.001312
2189.8110,-0.001247
2191.6746,-0.001492
2193.5383,-0.001796
2195.4020,-0.001442
2197.2657,-0.000785
2199.1293,-0.000901
2200.9930,-0.001212
2202.8567,-0.001014
2204.7203,-0.000445
2206.5840,-0.001061
2208.4477,-0.002559
2210.3113,-0.002296
2212.1750,-0.001567
2214.0387,-0.001317
2215.9023,-0.000790
2217.7660,-0.001301
2219.6297,-0.001760
2221.4934,-0.001936
2223.3570,-0.003121
2225.2207,-0.003893
2227.0844,-0.003557
2228.9480,-0.002592
2230.8117,-0.002106
2232.6754,-0.001866
2234.5390,-0.001659
2236.4027,-0.002374
2238.2664,-0.002666
2240.1300,-0.002149
2241.9937,-0.002073
2243.8574,-0.002307
2245.7210,-0.002343
2247.5847,-0.002370
2249.4484,-0.002182
2251.3121,-0.002510
2253.1757,-0.003488
2255.0394,-0.003410
2256.9031,-0.002374
2258.7667,-0.002219
2260.6304,-0.003028
2262.4941,-0.003172
2264.3577,-0.002590
2266.2214,-0.002540
2268.0851,-0.002463
2269.9487,-0.002221
2271.8124,-0.002372
2273.6761,-0.002959
2275.5397,-0.003405
2277.4034,-0.003021
2279.2671,-0.002521
2281.1308,-0.002290
2282.9944,-0.002306
2284.8581,-0.002382
2286.7218,-0.002416
2288.5854,-0.002480
2290.4491,-0.002533
2292.3128,-0.003029
2294.1764,-0.003520
2296.0401,-0.003505
2297.9038,-0.003512
2299.7674,-0.003491
2301.6311,-0.003361
2303.4948,-0.003240
2305.3585,-0.002993
2307.2221,-0.002946
2309.0858,-0.003457
2310.9495,-0.003805
2312.8131,-0.003357
2314.6768,-0.002981
2316.5405,-0.003099
2318.4041,-0.003326
2320.2678,-0.003022
2322.1315,-0.002398
2323.9951,-0.002599
2325.8588,-0.003470
2327.7225,-0.004093
2329.5861,-0.004186
2331.4498,-0.004258
2333.3135,-0.004339
2335.1772,-0.004621
2337.0408,-0.004861
2338.9045,-0.004443
2340.7682,-0.004320
2342.6318,-0.004536
2344.4955,-0.004509
2346.3592,-0.004684
2348.2228,-0.004592
2350.0865,-0.004433
2351.9502,-0.004583
2353.8138,-0.004377
2355.6775,-0.003823
2357.5412,-0.003526
2359.4049,-0.004082
2361.2685,-0.004649
2363.1322,-0.004334
2364.9959,-0.004273
2366.8595,-0.004729
2368.7232,-0.005111
2370.5869,-0.004737
2372.4505,-0.004110
2374.3142,-0.003946
2376.1779,-0.004304
2378.0415,-0.004362
2379.9052,-0.004066
2381.7689,-0.004008
2383.6325,-0.004129
2385.4962,-0.004198
2387.3599,-0.004048
2389.2236,-0.003846
2391.0872,-0.003868
2392.9509,-0.004139
2394.8146,-0.004277
2396.6782,-0.004188
2398.5419,-0.004002
2400.4056,-0.003944
2402.2692,-0.003974
2404.1329,-0.003705
2405.9966,-0.003561
2407.8602,-0.003499
2409.7239,-0.003370
2411.5876,-0.003330
2413.4512,-0.003262
2415.3149,-0.003512
2417.1786,-0.003703
2419.0423,-0.003385
2420.9059,-0.003199
2422.7696,-0.003329
2424.6333,-0.003325
2426.4969,-0.003064
2428.3606,-0.002925
2430.2243,-0.002968
2432.0879,-0.002926
2433.9516,-0.002884
2435.8153,-0.003015
2437.6789,-0.002949
2439.5426,-0.002560
2441.4063,-0.002297
2443.2700,-0.002356
2445.1336,-0.002754
2446.9973,-0.002967
2448.8610,-0.002860
2450.7246,-0.002615
2452.5883,-0.002471
2454.4520,-0.002602
2456.3156,-0.002769
2458.1793,-0.002466
2460.0430,-0.002143
2461.9066,-0.002305
2463.7703,-0.002540
2465.6340,-0.002667
2467.4976,-0.002651
2469.3613,-0.002610
2471.2250,-0.002555
2473.0887,-0.002727
2474.9523,-0.002755
2476.8160,-0.002397
2478.6797,-0.002156
2480.5433,-0.002152
2482.4070,-0.002337
2484.2707,-0.002501
2486.1343,-0.002535
2487.9980,-0.002504
2489.8617,-0.002437
2491.7253,-0.002157
2493.5890,-0.002015
2495.4527,-0.002017
2497.3164,-0.002037
2499.1800,-0.002243
2501.0437,-0.002247
2502.9074,-0.002012
2504.7710,-0.002163
2506.6347,-0.002110
2508.4984,-0.001892
2510.3620,-0.001878
2512.2257,-0.001971
2514.0894,-0.001735
2515.9530,-0.001625
2517.8167,-0.001759
2519.6804,-0.001691
2521.5440,-0.001820
2523.4077,-0.001981
2525.2714,-0.001977
2527.1351,-0.001962
2528.9987,-0.002005
2530.8624,-0.002000
2532.7261,-0.001724
2534.5897,-0.001483
2536.4534,-0.001558
2538.3171,-0.001435
2540.1807,-0.001549
2542.0444,-0.002113
2543.9081,-0.001955
2545.7717,-0.001686
2547.6354,-0.001434
2549.4991,-0.001348
2551.3627,-0.001785
2553.2264,-0.002026
2555.0901,-0.001675
2556.9538,-0.001409
2558.8174,-0.001469
2560.6811,-0.001596
2562.5448,-0.001492
2564.4084,-0.001519
2566.2721,-0.001575
2568.1358,-0.001326
2569.9994,-0.001170
2571.8631,-0.001316
2573.7268,-0.001321
2575.5904,-0.001480
2577.4541,-0.001609
2579.3178,-0.001242
2581.1815,-0.000945
