Wavenumber,Intensity
650.4205,0.153732
652.2841,0.149979
654.1478,0.150956
656.0115,0.151002
657.8751,0.150120
659.7388,0.150568
661.6025,0.150121
663.4661,0.146953
665.3298,0.143690
667.1935,0.146088
669.0571,0.150494
670.9208,0.144538
672.7845,0.143233
674.6481,0.143430
676.5118,0.140045
678.3755,0.138092
680.2392,0.138659
682.1028,0.137062
683.9665,0.134679
685.8302,0.133819
687.6938,0.134208
689.5575,0.134326
691.4212,0.132805
693.2848,0.130111
695.1485,0.129636
697.0122,0.129251
698.8758,0.126938
700.7395,0.125620
702.6032,0.126125
704.4669,0.125970
706.3305,0.124095
708.1942,0.121599
710.0579,0.119349
711.9215,0.118223
713.7852,0.117833
715.6489,0.117235
717.5125,0.116320
719.3762,0.114350
721.2399,0.112703
723.1035,0.111776
724.9672,0.110450
726.8309,0.108814
728.6945,0.107496
730.5582,0.106711
732.4219,0.105954
734.2856,0.104737
736.1492,0.104164
738.0129,0.104286
739.8766,0.103906
741.7402,0.103113
743.6039,0.102447
745.4676,0.101608
747.3312,0.100269
749.1949,0.098830
751.0586,0.097553
752.9222,0.096197
754.7859,0.095476
756.6496,0.095359
758.5132,0.094709
760.3769,0.093804
762.2406,0.093434
764.1043,0.093243
765.9679,0.092591
767.8316,0.091855
769.6953,0.091133
771.5589,0.090329
773.4226,0.089650
775.2863,0.089200
777.1499,0.088365
779.0136,0.087270
780.8773,0.086720
782.7409,0.085980
784.6046,0.084883
786.4683,0.083926
788.3320,0.082824
790.1956,0.081717
792.0593,0.080605
793.9230,0.079568
795.7866,0.078886
797.6503,0.078530
799.5140,0.078027
801.3776,0.077520
803.2413,0.077380
805.1050,0.077067
806.9686,0.076312
808.8323,0.075788
810.6960,0.075487
812.5596,0.075256
814.4233,0.074901
816.2870,0.074500
818.1507,0.074192
820.0143,0.073488
821.8780,0.072434
823.7417,0.071506
825.6053,0.070511
827.4690,0.069382
829.3327,0.068347
831.1963,0.067512
833.0600,0.066908
834.9237,0.066534
836.7873,0.066023
838.6510,0.065146
840.5147,0.064523
842.3784,0.064239
844.2420,0.063605
846.1057,0.063037
847.9694,0.062773
849.8330,0.062478
851.6967,0.062303
853.5604,0.062145
855.4240,0.061942
857.2877,0.061733
859.1514,0.061548
861.0150,0.061811
862.8787,0.062140
864.7424,0.062030
866.6060,0.061969
868.4697,0.062259
870.3334,0.062437
872.1971,0.062413
874.0607,0.062351
875.9244,0.062192
877.7881,0.061784
879.6517,0.061240
881.5154,0.060374
883.3791,0.059552
885.2427,0.058975
887.1064,0.058356
888.9701,0.058024
890.8337,0.058081
892.6974,0.057966
894.5611,0.057625
896.4247,0.057230
898.2884,0.056603
900.1521,0.055986
902.0158,0.055580
903.8794,0.055035
905.7431,0.054596
907.6068,0.054523
909.4704,0.054542
911.3341,0.054597
913.1978,0.054790
915.0614,0.055075
916.9251,0.055556
918.7888,0.056104
920.6524,0.056461
922.5161,0.056573
924.3798,0.056481
926.2435,0.056382
928.1071,0.056422
929.9708,0.056492
931.8345,0.056676
933.6981,0.057003
935.5618,0.057475
937.4255,0.058173
939.2891,0.059209
941.1528,0.060521
943.0165,0.061859
944.8801,0.063009
946.7438,0.063832
948.6075,0.064500
950.4711,0.065156
952.3348,0.065750
954.1985,0.066572
956.0622,0.067789
957.9258,0.069600
959.7895,0.072055
961.6532,0.074858
963.5168,0.077729
965.3805,0.080508
967.2442,0.082812
969.1078,0.084309
970.9715,0.085276
972.8352,0.086213
974.6988,0.087409
976.5625,0.088842
978.4262,0.090391
980.2899,0.092114
982.1535,0.093936
984.0172,0.095784
985.8809,0.097464
987.7445,0.098986
989.6082,0.100622
991.4719,0.102442
993.3355,0.104304
995.1992,0.106149
997.0629,0.107853
998.9265,0.109396
1000.7902,0.111026
1002.6539,0.112794
1004.5175,0.114555
1006.3812,0.116811
1008.2449,0.119775
1010.1086,0.123143
1011.9722,0.126817
1013.8359,0.130754
1015.6996,0.134632
1017.5632,0.138155
1019.4269,0.141100
1021.2906,0.143329
1023.1542,0.145013
1025.0179,0.146486
1026.8816,0.147801
1028.7452,0.149001
1030.6089,0.150104
1032.4726,0.150918
1034.3362,0.151338
1036.1999,0.151561
1038.0636,0.151440
1039.9273,0.151030
1041.7909,0.150568
1043.6546,0.150065
1045.5183,0.149589
1047.3819,0.149315
1049.2456,0.149439
1051.1093,0.149913
1052.9729,0.150372
1054.8366,0.150876
1056.7003,0.151356
1058.5639,0.151787
1060.4276,0.152153
1062.2913,0.152481
1064.1550,0.152779
1066.0186,0.153077
1067.8823,0.153205
1069.7460,0.152922
1071.6096,0.152164
1073.4733,0.150919
1075.3370,0.149219
1077.2006,0.146964
1079.0643,0.143908
1080.9280,0.140393
1082.7916,0.136739
1084.6553,0.132998
1086.5190,0.129375
1088.3826,0.126034
1090.2463,0.123004
1092.1100,0.120373
1093.9737,0.118034
1095.8373,0.115857
1097.7010,0.113788
1099.5647,0.111972
1101.4283,0.110290
1103.2920,0.108793
1105.1557,0.107531
1107.0193,0.106423
1108.8830,0.105293
1110.7467,0.104230
1112.6103,0.103244
1114.4740,0.102056
1116.3377,0.100596
1118.2014,0.099031
1120.0650,0.097572
1121.9287,0.096095
1123.7924,0.094490
1125.6560,0.092955
1127.5197,0.091474
1129.3834,0.089888
1131.2470,0.088070
1133.1107,0.086171
1134.9744,0.084266
1136.8380,0.082334
1138.7017,0.080537
1140.5654,0.078916
1142.4290,0.077576
1144.2927,0.076636
1146.1564,0.075848
1148.0201,0.075345
1149.8837,0.075056
1151.7474,0.074733
1153.6111,0.074291
1155.4747,0.073814
1157.3384,0.073137
1159.2021,0.072302
1161.0657,0.071429
1162.9294,0.070335
1164.7931,0.068886
1166.6567,0.067418
1168.5204,0.065837
1170.3841,0.063847
1172.2477,0.061631
1174.1114,0.059430
1175.9751,0.057415
1177.8388,0.055894
1179.7024,0.054825
1181.5661,0.054234
1183.4298,0.054058
1185.2934,0.054216
1187.1571,0.054633
1189.0208,0.055216
1190.8844,0.055916
1192.7481,0.056748
1194.6118,0.057645
1196.4754,0.058711
1198.3391,0.059956
1200.2028,0.061338
1202.0665,0.062748
1203.9301,0.063934
1205.7938,0.064804
1207.6575,0.065446
1209.5211,0.065859
1211.3848,0.066232
1213.2485,0.066640
1215.1121,0.067264
1216.9758,0.068192
1218.8395,0.069320
1220.7031,0.070596
1222.5668,0.071919
1224.4305,0.073229
1226.2941,0.074579
1228.1578,0.075923
1230.0215,0.077079
1231.8852,0.078032
1233.7488,0.078888
1235.6125,0.079572
1237.4762,0.080006
1239.3398,0.080196
1241.2035,0.080211
1243.0672,0.079922
1244.9308,0.079310
1246.7945,0.078521
1248.6582,0.077713
1250.5218,0.076887
1252.3855,0.076045
1254.2492,0.075177
1256.1129,0.074296
1257.9765,0.073555
1259.8402,0.073036
1261.7039,0.072533
1263.5675,0.072017
1265.4312,0.071549
1267.2949,0.071186
1269.1585,0.070814
1271.0222,0.070476
1272.8859,0.070210
1274.7495,0.069924
1276.6132,0.069657
1278.4769,0.069521
1280.3405,0.069326
1282.2042,0.069046
1284.0679,0.068840
1285.9316,0.068784
1287.7952,0.068837
1289.6589,0.068962
1291.5226,0.069074
1293.3862,0.069345
1295.2499,0.069874
1297.1136,0.070570
1298.9772,0.071292
1300.8409,0.072008
1302.7046,0.072740
1304.5682,0.073362
1306.4319,0.073975
1308.2956,0.074685
1310.1592,0.075284
1312.0229,0.075834
1313.8866,0.076163
1315.7503,0.076084
1317.6139,0.076088
1319.4776,0.076000
1321.3413,0.075570
1323.2049,0.075004
1325.0686,0.074569
1326.9323,0.074292
1328.7959,0.074123
1330.6596,0.073942
1332.5233,0.073635
1334.3869,0.073242
1336.2506,0.073213
1338.1143,0.073956
1339.9780,0.074785
1341.8416,0.074514
1343.7053,0.073866
1345.5690,0.073490
1347.4326,0.073198
1349.2963,0.073003
1351.1600,0.072741
1353.0236,0.072628
1354.8873,0.072680
1356.7510,0.072528
1358.6146,0.072466
1360.4783,0.073484
1362.3420,0.075806
1364.2056,0.077475
1366.0693,0.078261
1367.9330,0.079851
1369.7967,0.081307
1371.6603,0.082553
1373.5240,0.085129
1375.3877,0.087168
1377.2513,0.087479
1379.1150,0.087979
1380.9787,0.088390
1382.8423,0.088406
1384.7060,0.088763
1386.5697,0.090782
1388.4333,0.092193
1390.2970,0.091371
1392.1607,0.091413
1394.0244,0.093482
1395.8880,0.095400
1397.7517,0.096160
1399.6154,0.097299
1401.4790,0.096699
1403.3427,0.096335
1405.2064,0.096874
1407.0700,0.095937
1408.9337,0.094542
1410.7974,0.093454
1412.6610,0.091690
1414.5247,0.089313
1416.3884,0.087972
1418.2520,0.089047
1420.1157,0.089052
1421.9794,0.086819
1423.8431,0.086334
1425.7067,0.085892
1427.5704,0.085544
1429.4341,0.086764
1431.2977,0.087280
1433.1614,0.087067
1435.0251,0.089237
1436.8887,0.093885
1438.7524,0.094125
1440.6161,0.093062
1442.4797,0.092968
1444.3434,0.092662
1446.2071,0.093152
1448.0707,0.093845
1449.9344,0.092617
1451.7981,0.090103
1453.6618,0.087746
1455.5254,0.088001
1457.3891,0.090513
1459.2528,0.086587
1461.1164,0.081947
1462.9801,0.079938
1464.8438,0.079836
1466.7074,0.077393
1468.5711,0.073846
1470.4348,0.071870
1472.2984,0.072341
1474.1621,0.071566
1476.0258,0.069768
1477.8895,0.068275
1479.7531,0.067360
1481.6168,0.067313
1483.4805,0.066953
1485.3441,0.067128
1487.2078,0.069520
1489.0715,0.074091
1490.9351,0.077411
1492.7988,0.077163
1494.6625,0.079068
1496.5261,0.085687
1498.3898,0.090457
1500.2535,0.091352
1502.1171,0.090771
1503.9808,0.092289
1505.8445,0.103250
1507.7082,0.116161
1509.5718,0.114917
1511.4355,0.114860
1513.2992,0.116465
1515.1628,0.118465
1517.0265,0.121461
1518.8902,0.122494
1520.7538,0.126346
1522.6175,0.130162
1524.4812,0.129751
1526.3448,0.131909
1528.2085,0.132580
1530.0722,0.131938
1531.9359,0.133210
1533.7995,0.135928
1535.6632,0.133059
1537.5269,0.130786
1539.3905,0.136242
1541.2542,0.141155
1543.1179,0.138999
1544.9815,0.136596
1546.8452,0.132901
1548.7089,0.130168
1550.5725,0.128115
1552.4362,0.124763
1554.2999,0.121120
1556.1635,0.118112
1558.0272,0.121063
1559.8909,0.123635
1561.7546,0.116125
1563.6182,0.111452
1565.4819,0.108603
1567.3456,0.106210
1569.2092,0.105517
1571.0729,0.103059
1572.9366,0.099316
1574.8002,0.099055
1576.6639,0.100353
1578.5276,0.097707
1580.3912,0.095574
1582.2549,0.094966
1584.1186,0.094682
1585.9822,0.094783
1587.8459,0.095135
1589.7096,0.096074
1591.5733,0.097370
1593.4369,0.098944
1595.3006,0.100907
1597.1643,0.102927
1599.0279,0.105066
1600.8916,0.107707
1602.7553,0.110658
1604.6189,0.113708
1606.4826,0.116881
1608.3463,0.120865
1610.2099,0.124089
1612.0736,0.125966
1613.9373,0.128252
1615.8010,0.134270
1617.6646,0.139745
1619.5283,0.139322
1621.3920,0.140432
1623.2556,0.144932
1625.1193,0.146869
1626.9830,0.147324
1628.8466,0.148119
1630.7103,0.146844
1632.5740,0.144966
1634.4376,0.146434
1636.3013,0.149305
1638.1650,0.146368
1640.0286,0.142326
1641.8923,0.138962
1643.7560,0.136105
1645.6197,0.135195
1647.4833,0.133764
1649.3470,0.129113
1651.2107,0.126223
1653.0743,0.129047
1654.9380,0.125448
1656.8017,0.119123
1658.6653,0.114329
1660.5290,0.110833
1662.3927,0.107779
1664.2563,0.103541
1666.1200,0.098771
1667.9837,0.095006
1669.8474,0.091764
1671.7110,0.087739
1673.5747,0.083854
1675.4384,0.080179
1677.3020,0.075348
1679.1657,0.070877
1681.0294,0.066708
1682.8930,0.063274
1684.7567,0.059446
1686.6204,0.054942
1688.4840,0.050487
1690.3477,0.045794
1692.2114,0.041250
1694.0750,0.037307
1695.9387,0.032837
1697.8024,0.028911
1699.6661,0.025586
1701.5297,0.022181
1703.3934,0.019526
1705.2571,0.017303
1707.1207,0.015305
1708.9844,0.013812
1710.8481,0.012330
1712.7117,0.011128
1714.5754,0.010164
1716.4391,0.009406
1718.3027,0.008630
1720.1664,0.008194
1722.0301,0.007578
1723.8937,0.007011
1725.7574,0.006590
1727.6211,0.006399
1729.4848,0.005992
1731.3484,0.005801
1733.2121,0.005705
1735.0758,0.005912
1736.9394,0.005519
1738.8031,0.005085
1740.6668,0.005171
1742.5304,0.005204
1744.3941,0.004721
1746.2578,0.004320
1748.1214,0.004055
1749.9851,0.004025
1751.8488,0.003734
1753.7125,0.003434
1755.5761,0.003010
1757.4398,0.002910
1759.3035,0.002736
1761.1671,0.002415
1763.0308,0.002309
1764.8945,0.002345
1766.7581,0.002279
1768.6218,0.002279
1770.4855,0.002214
1772.3491,0.002142
1774.2128,0.001898
1776.0765,0.001802
1777.9401,0.001941
1779.8038,0.002155
1781.6675,0.002269
1783.5312,0.002167
1785.3948,0.001902
1787.2585,0.001793
1789.1222,0.001847
1790.9858,0.001996
1792.8495,0.002106
1794.7132,0.002125
1796.5768,0.002059
1798.4405,0.002059
1800.3042,0.002023
1802.1678,0.001973
1804.0315,0.001986
1805.8952,0.001927
1807.7589,0.001754
1809.6225,0.001758
1811.4862,0.001896
1813.3499,0.001885
1815.2135,0.001599
1817.0772,0.001636
1818.9409,0.001791
1820.8045,0.001814
1822.6682,0.001782
1824.5319,0.001644
1826.3955,0.001646
1828.2592,0.001804
1830.1229,0.001947
1831.9865,0.001960
1833.8502,0.001873
1835.7139,0.001739
1837.5776,0.001617
1839.4412,0.001718
1841.3049,0.001663
1843.1686,0.001840
1845.0322,0.002113
1846.8959,0.001905
1848.7596,0.001684
1850.6232,0.001973
1852.4869,0.002340
1854.3506,0.002152
1856.2142,0.002140
1858.0779,0.002372
1859.9416,0.002270
1861.8052,0.002116
1863.6689,0.002298
1865.5326,0.002258
1867.3963,0.002173
1869.2599,0.002372
1871.1236,0.002385
1872.9873,0.002428
1874.8509,0.002472
1876.7146,0.002480
1878.5783,0.002599
1880.4419,0.002614
1882.3056,0.002451
1884.1693,0.002442
1886.0329,0.002422
1887.8966,0.002886
1889.7603,0.002956
1891.6240,0.002878
1893.4876,0.002794
1895.3513,0.002498
1897.2150,0.002546
1899.0786,0.002715
1900.9423,0.002720
1902.8060,0.002343
1904.6696,0.002245
1906.5333,0.002792
1908.3970,0.003292
1910.2606,0.003439
1912.1243,0.003081
1913.9880,0.003041
1915.8516,0.003030
1917.7153,0.002763
1919.5790,0.002739
1921.4427,0.002709
1923.3063,0.002866
1925.1700,0.003314
1927.0337,0.003328
1928.8973,0.002803
1930.7610,0.002413
1932.6247,0.002414
1934.4883,0.002727
1936.3520,0.002978
1938.2157,0.002975
1940.0793,0.003169
1941.9430,0.003640
1943.8067,0.003913
1945.6704,0.003955
1947.5340,0.003571
1949.3977,0.003486
1951.2614,0.003869
1953.1250,0.003656
1954.9887,0.003182
1956.8524,0.003510
1958.7160,0.003500
1960.5797,0.003235
1962.4434,0.003648
1964.3070,0.003264
1966.1707,0.003825
1968.0344,0.004788
1969.8980,0.004272
1971.7617,0.004333
1973.6254,0.005551
1975.4891,0.005410
1977.3527,0.005881
1979.2164,0.006247
1981.0801,0.006099
1982.9437,0.006165
1984.8074,0.005777
1986.6711,0.005868
1988.5347,0.005970
1990.3984,0.005983
1992.2621,0.005618
1994.1257,0.004873
1995.9894,0.005044
1997.8531,0.005264
1999.7167,0.006135
2001.5804,0.006097
2003.4441,0.004784
2005.3078,0.004585
2007.1714,0.005250
2009.0351,0.006389
2010.8988,0.006962
2012.7624,0.006041
2014.6261,0.005368
2016.4898,0.005269
2018.3534,0.005941
2020.2171,0.006901
2022.0808,0.006477
2023.9444,0.005760
2025.8081,0.006553
2027.6718,0.007340
2029.5355,0.007086
2031.3991,0.006980
2033.2628,0.008281
2035.1265,0.008323
2036.9901,0.006337
2038.8538,0.006073
2040.7175,0.008106
2042.5811,0.008854
2044.4448,0.008357
2046.3085,0.008786
2048.1721,0.009650
2050.0358,0.009452
2051.8995,0.009438
2053.7631,0.009235
2055.6268,0.008538
2057.4905,0.008236
2059.3542,0.008618
2061.2178,0.008688
2063.0815,0.008233
2064.9452,0.007369
2066.8088,0.007529
2068.6725,0.008437
2070.5362,0.008903
2072.3998,0.008266
2074.2635,0.007241
2076.1272,0.007052
2077.9908,0.007671
2079.8545,0.008431
2081.7182,0.008705
2083.5819,0.008278
2085.4455,0.007936
2087.3092,0.007921
2089.1729,0.008094
2091.0365,0.007924
2092.9002,0.006947
2094.7639,0.006372
2096.6275,0.007275
2098.4912,0.008128
2100.3549,0.008129
2102.2185,0.008141
2104.0822,0.008342
2105.9459,0.008261
2107.8095,0.008127
2109.6732,0.007798
2111.5369,0.007839
2113.4006,0.008113
2115.2642,0.008086
2117.1279,0.007964
2118.9916,0.007764
2120.8552,0.007148
2122.7189,0.006873
2124.5826,0.007100
2126.4462,0.006574
2128.3099,0.006211
2130.1736,0.006839
2132.0372,0.006873
2133.9009,0.006651
2135.7646,0.007408
2137.6282,0.008335
2139.4919,0.008165
2141.3556,0.007826
2143.2193,0.007970
2145.0829,0.007206
2146.9466,0.006273
2148.8103,0.006659
2150.6739,0.007509
2152.5376,0.007532
2154.4013,0.007217
2156.2649,0.007334
2158.1286,0.008190
2159.9923,0.010307
2161.8559,0.011785
2163.7196,0.012123
2165.5833,0.012228
2167.4470,0.011650
2169.3106,0.010121
2171.1743,0.008605
2173.0380,0.007759
2174.9016,0.008660
2176.7653,0.010886
2178.6290,0.011187
2180.4926,0.010094
2182.3563,0.010677
2184.2200,0.010426
2186.0836,0.009606
2187.9473,0.010000
2189.8110,0.009336
2191.6746,0.009093
2193.5383,0.009820
2195.4020,0.009969
2197.2657,0.010117
2199.1293,0.010080
2200.9930,0.009847
2202.8567,0.010126
2204.7203,0.010430
2206.5840,0.009536
2208.4477,0.009157
2210.3113,0.009722
2212.1750,0.009537
2214.0387,0.009179
2215.9023,0.009088
2217.7660,0.009254
2219.6297,0.009797
2221.4934,0.010459
2223.3570,0.010332
2225.2207,0.009535
2227.0844,0.008930
2228.9480,0.008917
2230.8117,0.009335
2232.6754,0.009152
2234.5390,0.008959
2236.4027,0.009336
2238.2664,0.009396
2240.1300,0.009124
2241.9937,0.008945
2243.8574,0.008745
2245.7210,0.008984
2247.5847,0.009496
2249.4484,0.009813
2251.3121,0.009932
2253.1757,0.009393
2255.0394,0.008757
2256.9031,0.008703
2258.7667,0.008781
2260.6304,0.009136
2262.4941,0.009359
2264.3577,0.009112
2266.2214,0.008817
2268.0851,0.009011
2269.9487,0.009516
2271.8124,0.009274
2273.6761,0.008996
2275.5397,0.009481
2277.4034,0.009706
2279.2671,0.009267
2281.1308,0.009188
2282.9944,0.009474
2284.8581,0.009716
2286.7218,0.009755
2288.5854,0.009561
2290.4491,0.009445
2292.3128,0.009277
2294.1764,0.008919
2296.0401,0.008597
2297.9038,0.008449
2299.7674,0.008523
2301.6311,0.008910
2303.4948,0.009174
2305.3585,0.008905
2307.2221,0.008521
2309.0858,0.008444
2310.9495,0.008666
2312.8131,0.008758
2314.6768,0.008602
2316.5405,0.008586
2318.4041,0.008947
2320.2678,0.009482
2322.1315,0.009717
2323.9951,0.009601
2325.8588,0.009147
2327.7225,0.008386
2329.5861,0.008169
2331.4498,0.008461
2333.3135,0.008221
2335.1772,0.008283
2337.0408,0.008881
2338.9045,0.008949
2340.7682,0.008591
2342.6318,0.008993
2344.4955,0.009537
2346.3592,0.008817
2348.2228,0.007746
2350.0865,0.007009
2351.9502,0.006602
2353.8138,0.007282
2355.6775,0.008547
2357.5412,0.008481
2359.4049,0.008047
2361.2685,0.008313
2363.1322,0.008763
2364.9959,0.009036
2366.8595,0.009619
2368.7232,0.010285
2370.5869,0.009879
2372.4505,0.009084
2374.3142,0.008841
2376.1779,0.008946
2378.0415,0.008986
2379.9052,0.008615
2381.7689,0.008021
2383.6325,0.007769
2385.4962,0.007926
2387.3599,0.008222
2389.2236,0.008239
2391.0872,0.008073
2392.9509,0.007936
2394.8146,0.007845
2396.6782,0.007758
2398.5419,0.007837
2400.4056,0.008267
2402.2692,0.008461
2404.1329,0.008292
2405.9966,0.008380
2407.8602,0.008649
2409.7239,0.008777
2411.5876,0.008846
2413.4512,0.008717
2415.3149,0.008624
2417.1786,0.008635
2419.0423,0.008696
2420.9059,0.008828
2422.7696,0.008806
2424.6333,0.008622
2426.4969,0.008763
2428.3606,0.009248
2430.2243,0.009223
2432.0879,0.008749
2433.9516,0.008740
2435.8153,0.009200
2437.6789,0.009435
2439.5426,0.009417
2441.4063,0.009280
2443.2700,0.009250
2445.1336,0.009730
2446.9973,0.010052
2448.8610,0.009838
2450.7246,0.009734
2452.5883,0.009934
2454.4520,0.009987
2456.3156,0.009587
2458.1793,0.009340
2460.0430,0.009530
2461.9066,0.009634
2463.7703,0.009870
2465.6340,0.010069
2467.4976,0.009748
2469.3613,0.009431
2471.2250,0.009641
2473.0887,0.009749
2474.9523,0.009593
2476.8160,0.009860
2478.6797,0.010013
2480.5433,0.009984
2482.4070,0.009872
2484.2707,0.009936
2486.1343,0.010270
2487.9980,0.010325
2489.8617,0.010127
2491.7253,0.010308
2493.5890,0.010524
2495.4527,0.010336
2497.3164,0.010246
2499.1800,0.010325
2501.0437,0.010088
2502.9074,0.010026
2504.7710,0.010152
2506.6347,0.010258
2508.4984,0.010382
2510.3620,0.010396
2512.2257,0.010461
2514.0894,0.010715
2515.9530,0.011028
2517.8167,0.010914
2519.6804,0.010641
2521.5440,0.010655
2523.4077,0.010888
2525.2714,0.010830
2527.1351,0.010769
2528.9987,0.011169
2530.8624,0.011395
2532.7261,0.011072
2534.5897,0.010825
2536.4534,0.010924
2538.3171,0.011012
2540.1807,0.010934
2542.0444,0.010970
2543.9081,0.011157
2545.7717,0.011396
2547.6354,0.011495
2549.4991,0.011502
2551.3627,0.011557
2553.2264,0.011358
2555.0901,0.011213
2556.9538,0.011448
2558.8174,0.011729
2560.6811,0.011916
2562.5448,0.011917
2564.4084,0.011776
2566.2721,0.011531
2568.1358,0.011638
2569.9994,0.011750
2571.8631,0.011794
2573.7268,0.011934
2575.5904,0.012252
2577.4541,0.012598
2579.3178,0.012646
2581.1815,0.012576
2583.0451,0.012582
2584.9088,0.012741
2586.7725,0.012737
2588.6361,0.012733
2590.4998,0.012828
2592.3635,0.012861
2594.2271,0.012941
2596.0908,0.013219
2597.9545,0.013395
2599.8181,0.013433
2601.6818,0.013465
2603.5455,0.013505
2605.4091,0.013592
2607.2728,0.013814
2609.1365,0.014034
2611.0002,0.014010
2612.8638,0.013866
2614.7275,0.013810
2616.5912,0.014040
2618.4548,0.014383
2620.3185,0.014571
2622.1822,0.014633
2624.0458,0.014768
2625.9095,0.014708
