Wavenumber,Intensity
650.4205,0.080556
652.2841,0.079336
654.1478,0.081921
656.0115,0.082008
657.8751,0.080945
659.7388,0.080622
661.6025,0.081268
663.4661,0.079325
665.3298,0.075883
667.1935,0.075328
669.0571,0.079155
670.9208,0.079333
672.7845,0.077909
674.6481,0.076679
676.5118,0.076196
678.3755,0.077220
680.2392,0.077438
682.1028,0.074982
683.9665,0.073437
685.8302,0.073080
687.6938,0.072792
689.5575,0.073318
691.4212,0.072968
693.2848,0.071565
695.1485,0.071736
697.0122,0.072458
698.8758,0.072242
700.7395,0.071954
702.6032,0.071365
704.4669,0.070613
706.3305,0.069777
708.1942,0.068161
710.0579,0.066975
711.9215,0.066565
713.7852,0.065860
715.6489,0.065075
717.5125,0.064957
719.3762,0.065362
721.2399,0.064695
723.1035,0.063310
724.9672,0.062659
726.8309,0.062075
728.6945,0.061689
730.5582,0.061489
732.4219,0.060995
734.2856,0.060118
736.1492,0.059450
738.0129,0.059638
739.8766,0.059590
741.7402,0.058754
743.6039,0.058247
745.4676,0.058003
747.3312,0.057664
749.1949,0.057489
751.0586,0.057168
752.9222,0.056781
754.7859,0.056227
756.6496,0.055400
758.5132,0.054921
760.3769,0.054744
762.2406,0.054686
764.1043,0.054569
765.9679,0.053815
767.8316,0.053195
769.6953,0.053235
771.5589,0.052909
773.4226,0.052305
775.2863,0.052380
777.1499,0.052228
779.0136,0.051735
780.8773,0.051655
782.7409,0.051488
784.6046,0.051036
786.4683,0.050937
788.3320,0.050803
790.1956,0.050212
792.0593,0.049815
793.9230,0.049501
795.7866,0.048683
797.6503,0.047962
799.5140,0.047961
801.3776,0.048291
803.2413,0.048333
805.1050,0.048097
806.9686,0.047570
808.8323,0.046974
810.6960,0.046597
812.5596,0.046508
814.4233,0.046387
816.2870,0.046057
818.1507,0.045777
820.0143,0.045635
821.8780,0.045446
823.7417,0.045390
825.6053,0.045071
827.4690,0.044631
829.3327,0.044316
831.1963,0.043970
833.0600,0.043996
834.9237,0.044018
836.7873,0.043600
838.6510,0.043310
840.5147,0.043191
842.3784,0.043212
844.2420,0.043065
846.1057,0.042711
847.9694,0.042452
849.8330,0.042366
851.6967,0.042497
853.5604,0.042608
855.4240,0.042298
857.2877,0.042099
859.1514,0.042122
861.0150,0.042197
862.8787,0.042219
864.7424,0.042009
866.6060,0.041957
868.4697,0.042097
870.3334,0.042101
872.1971,0.041958
874.0607,0.041809
875.9244,0.041594
877.7881,0.041340
879.6517,0.041000
881.5154,0.040643
883.3791,0.040496
885.2427,0.040209
887.1064,0.040097
888.9701,0.040179
890.8337,0.040138
892.6974,0.040105
894.5611,0.040226
896.4247,0.040326
898.2884,0.040319
900.1521,0.040130
902.0158,0.039982
903.8794,0.040177
905.7431,0.040408
907.6068,0.040621
909.4704,0.040880
911.3341,0.041114
913.1978,0.041522
915.0614,0.042042
916.9251,0.042244
918.7888,0.042318
920.6524,0.042500
922.5161,0.042692
924.3798,0.042970
926.2435,0.043225
928.1071,0.043262
929.9708,0.043276
931.8345,0.043512
933.6981,0.043684
935.5618,0.043654
937.4255,0.043752
939.2891,0.043981
941.1528,0.044058
943.0165,0.044055
944.8801,0.044196
946.7438,0.044261
948.6075,0.044321
950.4711,0.044584
952.3348,0.044861
954.1985,0.045185
956.0622,0.045629
957.9258,0.046231
959.7895,0.046983
961.6532,0.047737
963.5168,0.048594
965.3805,0.049374
967.2442,0.050004
969.1078,0.050551
970.9715,0.050894
972.8352,0.051094
974.6988,0.051345
976.5625,0.051673
978.4262,0.052035
980.2899,0.052552
982.1535,0.053125
984.0172,0.053670
985.8809,0.054192
987.7445,0.054636
989.6082,0.055090
991.4719,0.055732
993.3355,0.056436
995.1992,0.057176
997.0629,0.057946
998.9265,0.058632
1000.7902,0.059307
1002.6539,0.060113
1004.5175,0.061112
1006.3812,0.062192
1008.2449,0.063368
1010.1086,0.064776
1011.9722,0.066209
1013.8359,0.067570
1015.6996,0.068901
1017.5632,0.070119
1019.4269,0.071184
1021.2906,0.072056
1023.1542,0.072788
1025.0179,0.073477
1026.8816,0.074098
1028.7452,0.074586
1030.6089,0.074977
1032.4726,0.075264
1034.3362,0.075419
1036.1999,0.075690
1038.0636,0.075904
1039.9273,0.075828
1041.7909,0.075591
1043.6546,0.075483
1045.5183,0.075388
1047.3819,0.075146
1049.2456,0.074938
1051.1093,0.074896
1052.9729,0.074858
1054.8366,0.074792
1056.7003,0.074734
1058.5639,0.074770
1060.4276,0.074817
1062.2913,0.074704
1064.1550,0.074621
1066.0186,0.074729
1067.8823,0.074805
1069.7460,0.074763
1071.6096,0.074613
1073.4733,0.074284
1075.3370,0.073853
1077.2006,0.073335
1079.0643,0.072481
1080.9280,0.071321
1082.7916,0.070120
1084.6553,0.068870
1086.5190,0.067664
1088.3826,0.066576
1090.2463,0.065671
1092.1100,0.064923
1093.9737,0.064259
1095.8373,0.063661
1097.7010,0.063116
1099.5647,0.062576
1101.4283,0.062122
1103.2920,0.061753
1105.1557,0.061376
1107.0193,0.061153
1108.8830,0.060963
1110.7467,0.060690
1112.6103,0.060390
1114.4740,0.060105
1116.3377,0.059843
1118.2014,0.059566
1120.0650,0.059118
1121.9287,0.058546
1123.7924,0.058019
1125.6560,0.057429
1127.5197,0.056636
1129.3834,0.055659
1131.2470,0.054649
1133.1107,0.053734
1134.9744,0.052965
1136.8380,0.052341
1138.7017,0.051820
1140.5654,0.051404
1142.4290,0.051158
1144.2927,0.051003
1146.1564,0.050826
1148.0201,0.050709
1149.8837,0.050696
1151.7474,0.050675
1153.6111,0.050597
1155.4747,0.050535
1157.3384,0.050305
1159.2021,0.049903
1161.0657,0.049422
1162.9294,0.048900
1164.7931,0.048305
1166.6567,0.047613
1168.5204,0.046818
1170.3841,0.045837
1172.2477,0.044800
1174.1114,0.043588
1175.9751,0.042285
1177.8388,0.041235
1179.7024,0.040470
1181.5661,0.039954
1183.4298,0.039571
1185.2934,0.039298
1187.1571,0.039241
1189.0208,0.039384
1190.8844,0.039499
1192.7481,0.039645
1194.6118,0.039948
1196.4754,0.040413
1198.3391,0.040919
1200.2028,0.041335
1202.0665,0.041779
1203.9301,0.042263
1205.7938,0.042653
1207.6575,0.042927
1209.5211,0.043165
1211.3848,0.043466
1213.2485,0.043850
1215.1121,0.044326
1216.9758,0.044961
1218.8395,0.045758
1220.7031,0.046459
1222.5668,0.047223
1224.4305,0.048051
1226.2941,0.048757
1228.1578,0.049400
1230.0215,0.050065
1231.8852,0.050651
1233.7488,0.051068
1235.6125,0.051417
1237.4762,0.051707
1239.3398,0.051762
1241.2035,0.051609
1243.0672,0.051377
1244.9308,0.051009
1246.7945,0.050703
1248.6582,0.050414
1250.5218,0.049891
1252.3855,0.049298
1254.2492,0.048905
1256.1129,0.048549
1257.9765,0.048255
1259.8402,0.047989
1261.7039,0.047609
1263.5675,0.047180
1265.4312,0.046796
1267.2949,0.046498
1269.1585,0.046295
1271.0222,0.046193
1272.8859,0.046090
1274.7495,0.046024
1276.6132,0.045984
1278.4769,0.045954
1280.3405,0.045993
1282.2042,0.045976
1284.0679,0.045949
1285.9316,0.046111
1287.7952,0.046163
1289.6589,0.046083
1291.5226,0.046186
1293.3862,0.046426
1295.2499,0.046761
1297.1136,0.047116
1298.9772,0.047473
1300.8409,0.047798
1302.7046,0.048113
1304.5682,0.048457
1306.4319,0.048877
1308.2956,0.049159
1310.1592,0.049317
1312.0229,0.049539
1313.8866,0.049591
1315.7503,0.049540
1317.6139,0.049647
1319.4776,0.049679
1321.3413,0.049426
1323.2049,0.049207
1325.0686,0.049113
1326.9323,0.049066
1328.7959,0.049085
1330.6596,0.049058
1332.5233,0.049081
1334.3869,0.049110
1336.2506,0.049287
1338.1143,0.049801
1339.9780,0.050332
1341.8416,0.050202
1343.7053,0.049919
1345.5690,0.049934
1347.4326,0.049896
1349.2963,0.049808
1351.1600,0.049527
1353.0236,0.049308
1354.8873,0.049273
1356.7510,0.049128
1358.6146,0.048962
1360.4783,0.049407
1362.3420,0.050643
1364.2056,0.051445
1366.0693,0.051626
1367.9330,0.052202
1369.7967,0.052634
1371.6603,0.053010
1373.5240,0.054273
1375.3877,0.055482
1377.2513,0.055802
1379.1150,0.056335
1380.9787,0.056619
1382.8423,0.056678
1384.7060,0.056782
1386.5697,0.057760
1388.4333,0.058555
1390.2970,0.057786
1392.1607,0.057293
1394.0244,0.058039
1395.8880,0.058724
1397.7517,0.058665
1399.6154,0.058681
1401.4790,0.057723
1403.3427,0.057272
1405.2064,0.057449
1407.0700,0.056801
1408.9337,0.056117
1410.7974,0.055734
1412.6610,0.055051
1414.5247,0.054102
1416.3884,0.053668
1418.2520,0.054737
1420.1157,0.055297
1421.9794,0.053982
1423.8431,0.053987
1425.7067,0.054167
1427.5704,0.054263
1429.4341,0.055544
1431.2977,0.056203
1433.1614,0.055987
1435.0251,0.057548
1436.8887,0.061141
1438.7524,0.061387
1440.6161,0.060735
1442.4797,0.061149
1444.3434,0.061242
1446.2071,0.061541
1448.0707,0.062344
1449.9344,0.061810
1451.7981,0.060411
1453.6618,0.059022
1455.5254,0.059197
1457.3891,0.061566
1459.2528,0.059398
1461.1164,0.056403
1462.9801,0.055194
1464.8438,0.055455
1466.7074,0.053842
1468.5711,0.051344
1470.4348,0.049938
1472.2984,0.050248
1474.1621,0.049768
1476.0258,0.048575
1477.8895,0.047656
1479.7531,0.047024
1481.6168,0.047085
1483.4805,0.046993
1485.3441,0.047059
1487.2078,0.048686
1489.0715,0.051871
1490.9351,0.054034
1492.7988,0.053669
1494.6625,0.054496
1496.5261,0.058398
1498.3898,0.061407
1500.2535,0.061970
1502.1171,0.061440
1503.9808,0.061797
1505.8445,0.068118
1507.7082,0.075733
1509.5718,0.074512
1511.4355,0.074185
1513.2992,0.074733
1515.1628,0.075659
1517.0265,0.077141
1518.8902,0.077155
1520.7538,0.079048
1522.6175,0.081082
1524.4812,0.080411
1526.3448,0.081392
1528.2085,0.081583
1530.0722,0.080709
1531.9359,0.081125
1533.7995,0.082829
1535.6632,0.080823
1537.5269,0.079237
1539.3905,0.082337
1541.2542,0.084526
1543.1179,0.082600
1544.9815,0.081024
1546.8452,0.078664
1548.7089,0.076749
1550.5725,0.075308
1552.4362,0.072837
1554.2999,0.070670
1556.1635,0.068770
1558.0272,0.070720
1559.8909,0.072914
1561.7546,0.068275
1563.6182,0.065656
1565.4819,0.064505
1567.3456,0.063566
1569.2092,0.064044
1571.0729,0.063289
1572.9366,0.061230
1574.8002,0.061857
1576.6639,0.064218
1578.5276,0.063274
1580.3912,0.062253
1582.2549,0.062646
1584.1186,0.063284
1585.9822,0.063845
1587.8459,0.064359
1589.7096,0.065553
1591.5733,0.066745
1593.4369,0.067676
1595.3006,0.068871
1597.1643,0.070254
1599.0279,0.071269
1600.8916,0.072501
1602.7553,0.073860
1604.6189,0.075261
1606.4826,0.076815
1608.3463,0.078794
1610.2099,0.080522
1612.0736,0.081501
1613.9373,0.082252
1615.8010,0.085405
1617.6646,0.088450
1619.5283,0.087394
1621.3920,0.087342
1623.2556,0.089684
1625.1193,0.090228
1626.9830,0.090063
1628.8466,0.089988
1630.7103,0.088741
1632.5740,0.087394
1634.4376,0.088314
1636.3013,0.090154
1638.1650,0.088089
1640.0286,0.085409
1641.8923,0.083499
1643.7560,0.081937
1645.6197,0.081487
1647.4833,0.081054
1649.3470,0.077834
1651.2107,0.075587
1653.0743,0.077441
1654.9380,0.074871
1656.8017,0.070755
1658.6653,0.067776
1660.5290,0.065544
1662.3927,0.064046
1664.2563,0.061554
1666.1200,0.058424
1667.9837,0.056327
1669.8474,0.054782
1671.7110,0.052342
1673.5747,0.049925
1675.4384,0.048214
1677.3020,0.045352
1679.1657,0.042329
1681.0294,0.039711
1682.8930,0.038005
1684.7567,0.036002
1686.6204,0.032897
1688.4840,0.030403
1690.3477,0.027804
1692.2114,0.024876
1694.0750,0.022402
1695.9387,0.019968
1697.8024,0.017516
1699.6661,0.015714
1701.5297,0.013823
1703.3934,0.012020
1705.2571,0.010671
1707.1207,0.009679
1708.9844,0.009103
1710.8481,0.008363
1712.7117,0.007649
1714.5754,0.007107
1716.4391,0.006887
1718.3027,0.006820
1720.1664,0.006433
1722.0301,0.006024
1723.8937,0.005888
1725.7574,0.005777
1727.6211,0.005538
1729.4848,0.005432
1731.3484,0.005662
1733.2121,0.005957
1735.0758,0.006409
1736.9394,0.006287
1738.8031,0.006423
1740.6668,0.006799
1742.5304,0.007030
1744.3941,0.006914
1746.2578,0.006580
1748.1214,0.006019
1749.9851,0.005466
1751.8488,0.004745
1753.7125,0.003919
1755.5761,0.002982
1757.4398,0.002186
1759.3035,0.001749
1761.1671,0.001420
1763.0308,0.000977
1764.8945,0.000805
1766.7581,0.000660
1768.6218,0.000526
1770.4855,0.000520
1772.3491,0.000648
1774.2128,0.000709
1776.0765,0.000596
1777.9401,0.000287
1779.8038,0.000313
1781.6675,0.000575
1783.5312,0.000541
1785.3948,0.000340
1787.2585,0.000212
1789.1222,0.000074
1790.9858,0.000013
1792.8495,0.000316
1794.7132,0.000520
1796.5768,0.000397
1798.4405,0.000419
1800.3042,0.000517
1802.1678,0.000442
1804.0315,0.000213
1805.8952,0.000142
1807.7589,0.000040
1809.6225,-0.000047
1811.4862,0.000184
1813.3499,0.000353
1815.2135,0.000152
1817.0772,0.000046
1818.9409,0.000352
1820.8045,0.000489
1822.6682,0.000283
1824.5319,0.000111
1826.3955,0.000211
1828.2592,0.000353
1830.1229,0.000714
1831.9865,0.000784
1833.8502,0.000667
1835.7139,0.000603
1837.5776,0.000374
1839.4412,0.000369
1841.3049,0.000424
1843.1686,0.000278
1845.0322,0.000171
1846.8959,0.000432
1848.7596,0.000390
1850.6232,0.000271
1852.4869,0.000404
1854.3506,0.000337
1856.2142,0.000277
1858.0779,0.000257
1859.9416,0.000243
1861.8052,0.000281
1863.6689,0.000168
1865.5326,0.000435
1867.3963,0.000813
1869.2599,0.000657
1871.1236,0.000344
1872.9873,0.000428
1874.8509,0.000449
1876.7146,0.000617
1878.5783,0.000725
1880.4419,0.000699
1882.3056,0.000550
1884.1693,0.000276
1886.0329,0.000146
1887.8966,0.000338
1889.7603,0.000458
1891.6240,0.000536
1893.4876,0.000729
1895.3513,0.000625
1897.2150,0.000812
1899.0786,0.001288
1900.9423,0.001479
1902.8060,0.001244
1904.6696,0.000525
1906.5333,0.000401
1908.3970,0.000857
1910.2606,0.001042
1912.1243,0.001324
1913.9880,0.001430
1915.8516,0.001256
1917.7153,0.001172
1919.5790,0.000912
1921.4427,0.000920
1923.3063,0.001491
1925.1700,0.001697
1927.0337,0.001091
1928.8973,0.001214
1930.7610,0.001600
1932.6247,0.000826
1934.4883,0.000285
1936.3520,0.000987
1938.2157,0.001763
1940.0793,0.001721
1941.9430,0.001181
1943.8067,0.000921
1945.6704,0.001774
1947.5340,0.002392
1949.3977,0.001989
1951.2614,0.001838
1953.1250,0.001629
1954.9887,0.001450
1956.8524,0.001813
1958.7160,0.002282
1960.5797,0.002253
1962.4434,0.002037
1964.3070,0.001524
1966.1707,0.001508
1968.0344,0.001924
1969.8980,0.002660
1971.7617,0.003689
1973.6254,0.003071
1975.4891,0.001755
1977.3527,0.002963
1979.2164,0.004702
1981.0801,0.004864
1982.9437,0.005032
1984.8074,0.004868
1986.6711,0.004545
1988.5347,0.004221
1990.3984,0.003005
1992.2621,0.002089
1994.1257,0.002978
1995.9894,0.004164
1997.8531,0.003920
1999.7167,0.003160
2001.5804,0.002635
2003.4441,0.002071
2005.3078,0.002240
2007.1714,0.003669
2009.0351,0.004227
2010.8988,0.003347
2012.7624,0.002448
2014.6261,0.002749
2016.4898,0.003409
2018.3534,0.002244
2020.2171,0.001433
2022.0808,0.003081
2023.9444,0.003621
2025.8081,0.003642
2027.6718,0.004293
2029.5355,0.004372
2031.3991,0.004285
2033.2628,0.004660
2035.1265,0.005728
2036.9901,0.005632
2038.8538,0.004245
2040.7175,0.003642
2042.5811,0.004202
2044.4448,0.004474
2046.3085,0.004339
2048.1721,0.004437
2050.0358,0.004540
2051.8995,0.004342
2053.7631,0.004446
2055.6268,0.004178
2057.4905,0.003177
2059.3542,0.003271
2061.2178,0.004500
2063.0815,0.004891
2064.9452,0.004222
2066.8088,0.004107
2068.6725,0.004261
2070.5362,0.004052
2072.3998,0.004365
2074.2635,0.004777
2076.1272,0.004495
2077.9908,0.004184
2079.8545,0.003864
2081.7182,0.003353
2083.5819,0.003610
2085.4455,0.004163
2087.3092,0.004275
2089.1729,0.004226
2091.0365,0.004011
2092.9002,0.003692
2094.7639,0.003574
2096.6275,0.003481
2098.4912,0.003510
2100.3549,0.004008
2102.2185,0.004259
2104.0822,0.004369
2105.9459,0.004151
2107.8095,0.003091
2109.6732,0.002975
2111.5369,0.003941
2113.4006,0.003953
2115.2642,0.003356
2117.1279,0.003137
2118.9916,0.003123
2120.8552,0.002932
2122.7189,0.002869
2124.5826,0.003125
2126.4462,0.002976
2128.3099,0.002594
2130.1736,0.002482
2132.0372,0.002820
2133.9009,0.003509
2135.7646,0.004063
2137.6282,0.003722
2139.4919,0.003273
2141.3556,0.003303
2143.2193,0.003795
2145.0829,0.004277
2146.9466,0.003611
2148.8103,0.002724
2150.6739,0.002816
2152.5376,0.003644
2154.4013,0.003816
2156.2649,0.003215
2158.1286,0.005056
2159.9923,0.008733
2161.8559,0.008769
2163.7196,0.006822
2165.5833,0.006204
2167.4470,0.005875
2169.3106,0.005292
2171.1743,0.005323
2173.0380,0.005392
2174.9016,0.005622
2176.7653,0.006478
2178.6290,0.006808
2180.4926,0.006305
2182.3563,0.006008
2184.2200,0.006013
2186.0836,0.005636
2187.9473,0.005926
2189.8110,0.006615
2191.6746,0.006080
2193.5383,0.005416
2195.4020,0.005421
2197.2657,0.005431
2199.1293,0.005230
2200.9930,0.004791
2202.8567,0.004979
2204.7203,0.005316
2206.5840,0.005405
2208.4477,0.005426
2210.3113,0.004878
2212.1750,0.004747
2214.0387,0.005182
2215.9023,0.005417
2217.7660,0.005848
2219.6297,0.006437
2221.4934,0.006258
2223.3570,0.004991
2225.2207,0.004161
2227.0844,0.004543
2228.9480,0.004595
2230.8117,0.004254
2232.6754,0.004795
2234.5390,0.005705
2236.4027,0.005802
2238.2664,0.005429
2240.1300,0.005004
2241.9937,0.004956
2243.8574,0.004975
2245.7210,0.004675
2247.5847,0.004733
2249.4484,0.004706
2251.3121,0.004456
2253.1757,0.004485
2255.0394,0.004974
2256.9031,0.004941
2258.7667,0.004442
2260.6304,0.004537
2262.4941,0.005044
2264.3577,0.005565
2266.2214,0.005712
2268.0851,0.005599
2269.9487,0.005486
2271.8124,0.005172
2273.6761,0.004784
2275.5397,0.004451
2277.4034,0.004917
2279.2671,0.005736
2281.1308,0.005648
2282.9944,0.005517
2284.8581,0.005816
2286.7218,0.005800
2288.5854,0.005438
2290.4491,0.005095
2292.3128,0.004942
2294.1764,0.004761
2296.0401,0.004323
2297.9038,0.004196
2299.7674,0.004603
2301.6311,0.004866
2303.4948,0.004842
2305.3585,0.005029
2307.2221,0.004864
2309.0858,0.004416
2310.9495,0.004407
2312.8131,0.004750
2314.6768,0.004847
2316.5405,0.004437
2318.4041,0.004685
2320.2678,0.005377
2322.1315,0.005631
2323.9951,0.005511
2325.8588,0.005234
2327.7225,0.004911
2329.5861,0.004484
2331.4498,0.004171
2333.3135,0.004096
2335.1772,0.003964
2337.0408,0.004051
2338.9045,0.004380
2340.7682,0.004574
2342.6318,0.004969
2344.4955,0.005208
2346.3592,0.004806
2348.2228,0.003969
2350.0865,0.003571
2351.9502,0.003823
2353.8138,0.004142
2355.6775,0.004242
2357.5412,0.004457
2359.4049,0.004390
2361.2685,0.003882
2363.1322,0.004343
2364.9959,0.005074
2366.8595,0.005263
2368.7232,0.005695
2370.5869,0.006059
2372.4505,0.005283
2374.3142,0.004614
2376.1779,0.004528
2378.0415,0.004421
2379.9052,0.004504
2381.7689,0.004420
2383.6325,0.004086
2385.4962,0.003858
2387.3599,0.003888
2389.2236,0.003990
2391.0872,0.003907
2392.9509,0.003875
2394.8146,0.003950
2396.6782,0.003902
2398.5419,0.004097
2400.4056,0.004417
2402.2692,0.004506
2404.1329,0.004438
2405.9966,0.004418
2407.8602,0.004488
2409.7239,0.004683
2411.5876,0.004791
2413.4512,0.004828
2415.3149,0.004846
2417.1786,0.004716
2419.0423,0.004715
2420.9059,0.004867
2422.7696,0.004943
2424.6333,0.004849
2426.4969,0.004836
2428.3606,0.005124
2430.2243,0.005217
2432.0879,0.005167
2433.9516,0.004924
2435.8153,0.004760
2437.6789,0.005017
2439.5426,0.005384
2441.4063,0.005675
2443.2700,0.005627
2445.1336,0.005154
2446.9973,0.005159
2448.8610,0.005625
2450.7246,0.005978
2452.5883,0.005677
2454.4520,0.005377
2456.3156,0.005635
2458.1793,0.005593
2460.0430,0.005458
2461.9066,0.005884
2463.7703,0.006057
2465.6340,0.005763
2467.4976,0.005262
2469.3613,0.004999
2471.2250,0.005172
2473.0887,0.005413
2474.9523,0.005807
2476.8160,0.005943
2478.6797,0.005840
2480.5433,0.005741
2482.4070,0.005560
2484.2707,0.005682
2486.1343,0.006033
2487.9980,0.005910
2489.8617,0.005976
2491.7253,0.006207
2493.5890,0.005972
2495.4527,0.005856
2497.3164,0.005934
2499.1800,0.006127
2501.0437,0.006138
2502.9074,0.006030
2504.7710,0.006101
2506.6347,0.006174
2508.4984,0.006328
2510.3620,0.006517
2512.2257,0.006582
2514.0894,0.006333
2515.9530,0.006182
2517.8167,0.006194
2519.6804,0.006133
2521.5440,0.006278
2523.4077,0.006745
2525.2714,0.006729
2527.1351,0.006410
2528.9987,0.006293
2530.8624,0.006362
2532.7261,0.006683
2534.5897,0.006810
2536.4534,0.006924
2538.3171,0.006809
2540.1807,0.006438
2542.0444,0.006302
2543.9081,0.006292
2545.7717,0.006523
2547.6354,0.006917
2549.4991,0.006910
2551.3627,0.006749
2553.2264,0.006840
2555.0901,0.006709
2556.9538,0.006488
2558.8174,0.006813
2560.6811,0.007209
2562.5448,0.007131
2564.4084,0.007061
2566.2721,0.007291
2568.1358,0.007451
2569.9994,0.007349
2571.8631,0.007295
2573.7268,0.007167
2575.5904,0.007209
2577.4541,0.007432
2579.3178,0.007277
2581.1815,0.007220
2583.0451,0.007478
2584.9088,0.007547
2586.7725,0.007535
2588.6361,0.007682
2590.4998,0.007888
2592.3635,0.007922
2594.2271,0.007977
2596.0908,0.008145
2597.9545,0.008466
2599.8181,0.008526
2601.6818,0.008316
2603.5455,0.008357
2605.4091,0.008394
2607.2728,0.008277
2609.1365,0.008385
2611.0002,0.008564
2612.8638,0.008754
2614.7275,0.008909
2616.5912,0.008811
2618.4548,0.008773
2620.3185,0.008830
2622.1822,0.008845
2624.0458,0.009051
2625.9095,0.009209
