Wavenumber,Intensity
650.4205,0.092949
652.2841,0.091970
654.1478,0.093186
656.0115,0.094322
657.8751,0.091332
659.7388,0.088538
661.6025,0.088758
663.4661,0.088534
665.3298,0.084810
667.1935,0.082041
669.0571,0.088594
670.9208,0.090790
672.7845,0.089686
674.6481,0.087807
676.5118,0.086012
678.3755,0.086059
680.2392,0.086130
682.1028,0.086104
683.9665,0.085916
685.8302,0.083956
687.6938,0.082452
689.5575,0.081343
691.4212,0.080584
693.2848,0.081639
695.1485,0.082436
697.0122,0.081081
698.8758,0.079680
700.7395,0.079786
702.6032,0.079855
704.4669,0.079031
706.3305,0.078134
708.1942,0.077300
710.0579,0.076457
711.9215,0.075704
713.7852,0.074650
715.6489,0.073600
717.5125,0.073350
719.3762,0.072598
721.2399,0.071390
723.1035,0.070863
724.9672,0.070137
726.8309,0.069283
728.6945,0.068406
730.5582,0.067712
732.4219,0.067203
734.2856,0.066574
736.1492,0.065886
738.0129,0.064940
739.8766,0.064647
741.7402,0.064739
743.6039,0.064996
745.4676,0.065298
747.3312,0.064667
749.1949,0.063705
751.0586,0.063357
752.9222,0.063218
754.7859,0.062317
756.6496,0.061580
758.5132,0.061900
760.3769,0.062746
762.2406,0.063215
764.1043,0.062763
765.9679,0.062115
767.8316,0.061406
769.6953,0.060962
771.5589,0.061039
773.4226,0.061099
775.2863,0.060459
777.1499,0.059345
779.0136,0.058730
780.8773,0.057996
782.7409,0.057230
784.6046,0.056695
786.4683,0.055809
788.3320,0.054908
790.1956,0.054152
792.0593,0.053453
793.9230,0.053366
795.7866,0.053371
797.6503,0.053205
799.5140,0.053432
801.3776,0.053796
803.2413,0.053728
805.1050,0.053791
806.9686,0.054224
808.8323,0.054241
810.6960,0.054265
812.5596,0.054509
814.4233,0.054422
816.2870,0.053966
818.1507,0.053196
820.0143,0.052269
821.8780,0.051497
823.7417,0.050464
825.6053,0.048753
827.4690,0.046913
829.3327,0.045516
831.1963,0.044592
833.0600,0.043467
834.9237,0.042422
836.7873,0.041600
838.6510,0.040388
840.5147,0.039192
842.3784,0.038487
844.2420,0.037807
846.1057,0.037269
847.9694,0.037011
849.8330,0.036626
851.6967,0.036120
853.5604,0.035931
855.4240,0.036095
857.2877,0.036248
859.1514,0.036519
861.0150,0.037027
862.8787,0.037350
864.7424,0.037612
866.6060,0.038082
868.4697,0.038506
870.3334,0.038815
872.1971,0.039079
874.0607,0.039073
875.9244,0.038752
877.7881,0.038287
879.6517,0.037767
881.5154,0.037074
883.3791,0.036386
885.2427,0.035845
887.1064,0.035423
888.9701,0.035166
890.8337,0.035143
892.6974,0.035051
894.5611,0.034706
896.4247,0.034447
898.2884,0.034240
900.1521,0.033836
902.0158,0.033420
903.8794,0.033031
905.7431,0.032570
907.6068,0.032169
909.4704,0.032157
911.3341,0.032605
913.1978,0.033130
915.0614,0.033546
916.9251,0.033862
918.7888,0.034101
920.6524,0.034268
922.5161,0.034331
924.3798,0.034367
926.2435,0.034554
928.1071,0.034695
929.9708,0.034633
931.8345,0.034602
933.6981,0.034648
935.5618,0.035055
937.4255,0.035878
939.2891,0.036939
941.1528,0.038235
943.0165,0.039648
944.8801,0.041125
946.7438,0.042208
948.6075,0.042801
950.4711,0.043128
952.3348,0.043369
954.1985,0.043869
956.0622,0.044796
957.9258,0.046242
959.7895,0.048201
961.6532,0.050662
963.5168,0.053340
965.3805,0.055727
967.2442,0.057485
969.1078,0.058586
970.9715,0.059269
972.8352,0.059863
974.6988,0.060595
976.5625,0.061829
978.4262,0.063581
980.2899,0.065548
982.1535,0.067523
984.0172,0.069216
985.8809,0.070560
987.7445,0.071942
989.6082,0.073394
991.4719,0.074782
993.3355,0.076168
995.1992,0.077530
997.0629,0.078809
998.9265,0.079899
1000.7902,0.080783
1002.6539,0.081910
1004.5175,0.083678
1006.3812,0.086057
1008.2449,0.088940
1010.1086,0.092412
1011.9722,0.096365
1013.8359,0.100337
1015.6996,0.104026
1017.5632,0.107258
1019.4269,0.109744
1021.2906,0.111306
1023.1542,0.112370
1025.0179,0.113416
1026.8816,0.114467
1028.7452,0.115596
1030.6089,0.116720
1032.4726,0.117624
1034.3362,0.118101
1036.1999,0.118079
1038.0636,0.117695
1039.9273,0.116962
1041.7909,0.116012
1043.6546,0.115097
1045.5183,0.114369
1047.3819,0.113666
1049.2456,0.112982
1051.1093,0.112652
1052.9729,0.112538
1054.8366,0.112418
1056.7003,0.112192
1058.5639,0.111912
1060.4276,0.111720
1062.2913,0.111526
1064.1550,0.111328
1066.0186,0.111243
1067.8823,0.111249
1069.7460,0.111197
1071.6096,0.111045
1073.4733,0.110661
1075.3370,0.109793
1077.2006,0.108197
1079.0643,0.105759
1080.9280,0.102721
1082.7916,0.099255
1084.6553,0.095443
1086.5190,0.091484
1088.3826,0.087783
1090.2463,0.084507
1092.1100,0.081574
1093.9737,0.079107
1095.8373,0.077167
1097.7010,0.075484
1099.5647,0.073882
1101.4283,0.072421
1103.2920,0.071280
1105.1557,0.070574
1107.0193,0.070259
1108.8830,0.069997
1110.7467,0.069861
1112.6103,0.069857
1114.4740,0.069591
1116.3377,0.068998
1118.2014,0.068199
1120.0650,0.067231
1121.9287,0.066136
1123.7924,0.064900
1125.6560,0.063655
1127.5197,0.062336
1129.3834,0.060839
1131.2470,0.059253
1133.1107,0.057659
1134.9744,0.056144
1136.8380,0.054655
1138.7017,0.053158
1140.5654,0.051895
1142.4290,0.051131
1144.2927,0.050624
1146.1564,0.050284
1148.0201,0.050326
1149.8837,0.050385
1151.7474,0.050330
1153.6111,0.050225
1155.4747,0.049998
1157.3384,0.049664
1159.2021,0.049144
1161.0657,0.048403
1162.9294,0.047599
1164.7931,0.046639
1166.6567,0.045382
1168.5204,0.043737
1170.3841,0.041725
1172.2477,0.039424
1174.1114,0.037015
1175.9751,0.034697
1177.8388,0.032667
1179.7024,0.031060
1181.5661,0.029886
1183.4298,0.029137
1185.2934,0.028868
1187.1571,0.029074
1189.0208,0.029523
1190.8844,0.030120
1192.7481,0.030906
1194.6118,0.031980
1196.4754,0.033330
1198.3391,0.034843
1200.2028,0.036420
1202.0665,0.037912
1203.9301,0.039370
1205.7938,0.040652
1207.6575,0.041686
1209.5211,0.042598
1211.3848,0.043449
1213.2485,0.044284
1215.1121,0.045135
1216.9758,0.046022
1218.8395,0.047034
1220.7031,0.048013
1222.5668,0.048843
1224.4305,0.049720
1226.2941,0.050539
1228.1578,0.051128
1230.0215,0.051706
1231.8852,0.052140
1233.7488,0.052431
1235.6125,0.052717
1237.4762,0.052898
1239.3398,0.052991
1241.2035,0.052954
1243.0672,0.052721
1244.9308,0.052433
1246.7945,0.052028
1248.6582,0.051599
1250.5218,0.051215
1252.3855,0.050747
1254.2492,0.050281
1256.1129,0.049763
1257.9765,0.049113
1259.8402,0.048545
1261.7039,0.048029
1263.5675,0.047445
1265.4312,0.046916
1267.2949,0.046442
1269.1585,0.045934
1271.0222,0.045422
1272.8859,0.044884
1274.7495,0.044384
1276.6132,0.044076
1278.4769,0.043835
1280.3405,0.043494
1282.2042,0.043097
1284.0679,0.042854
1285.9316,0.042776
1287.7952,0.042712
1289.6589,0.042822
1291.5226,0.043024
1293.3862,0.043318
1295.2499,0.043784
1297.1136,0.044372
1298.9772,0.045031
1300.8409,0.045720
1302.7046,0.046417
1304.5682,0.047084
1306.4319,0.047713
1308.2956,0.048244
1310.1592,0.048679
1312.0229,0.049107
1313.8866,0.049507
1315.7503,0.049749
1317.6139,0.049733
1319.4776,0.049524
1321.3413,0.049236
1323.2049,0.048896
1325.0686,0.048470
1326.9323,0.047980
1328.7959,0.047633
1330.6596,0.047334
1332.5233,0.047069
1334.3869,0.046857
1336.2506,0.046906
1338.1143,0.047330
1339.9780,0.047858
1341.8416,0.047998
1343.7053,0.047927
1345.5690,0.047977
1347.4326,0.047948
1349.2963,0.047887
1351.1600,0.047937
1353.0236,0.047961
1354.8873,0.048095
1356.7510,0.048311
1358.6146,0.048545
1360.4783,0.049236
1362.3420,0.050856
1364.2056,0.052428
1366.0693,0.053560
1367.9330,0.055075
1369.7967,0.056561
1371.6603,0.057777
1373.5240,0.059360
1375.3877,0.060680
1377.2513,0.060951
1379.1150,0.061005
1380.9787,0.060845
1382.8423,0.060594
1384.7060,0.060304
1386.5697,0.060661
1388.4333,0.061004
1390.2970,0.060455
1392.1607,0.060294
1394.0244,0.061061
1395.8880,0.061884
1397.7517,0.062350
1399.6154,0.062963
1401.4790,0.062832
1403.3427,0.062871
1405.2064,0.063190
1407.0700,0.062794
1408.9337,0.062154
1410.7974,0.061518
1412.6610,0.060487
1414.5247,0.059111
1416.3884,0.058047
1418.2520,0.057828
1420.1157,0.057371
1421.9794,0.055998
1423.8431,0.055501
1425.7067,0.055057
1427.5704,0.054396
1429.4341,0.054345
1431.2977,0.054229
1433.1614,0.053739
1435.0251,0.054119
1436.8887,0.055517
1438.7524,0.055368
1440.6161,0.054772
1442.4797,0.054688
1444.3434,0.054453
1446.2071,0.054465
1448.0707,0.054431
1449.9344,0.053704
1451.7981,0.052596
1453.6618,0.051527
1455.5254,0.051117
1457.3891,0.051898
1459.2528,0.050320
1461.1164,0.048013
1462.9801,0.046650
1464.8438,0.046335
1466.7074,0.045306
1468.5711,0.043702
1470.4348,0.042620
1472.2984,0.042539
1474.1621,0.041985
1476.0258,0.040847
1477.8895,0.039758
1479.7531,0.039050
1481.6168,0.039007
1483.4805,0.038972
1485.3441,0.039156
1487.2078,0.040284
1489.0715,0.042551
1490.9351,0.044601
1492.7988,0.044983
1494.6625,0.046042
1496.5261,0.049432
1498.3898,0.052556
1500.2535,0.053925
1502.1171,0.054435
1503.9808,0.055566
1505.8445,0.060691
1507.7082,0.067659
1509.5718,0.068525
1511.4355,0.069917
1513.2992,0.072107
1515.1628,0.074217
1517.0265,0.076637
1518.8902,0.077805
1520.7538,0.080070
1522.6175,0.082940
1524.4812,0.083580
1526.3448,0.085368
1528.2085,0.086734
1530.0722,0.087393
1531.9359,0.088850
1533.7995,0.091170
1535.6632,0.090613
1537.5269,0.090259
1539.3905,0.093387
1541.2542,0.095974
1543.1179,0.095341
1544.9815,0.094893
1546.8452,0.093780
1548.7089,0.092962
1550.5725,0.092132
1552.4362,0.090655
1554.2999,0.089116
1556.1635,0.087305
1558.0272,0.087686
1559.8909,0.087716
1561.7546,0.083693
1563.6182,0.080970
1565.4819,0.078965
1567.3456,0.077152
1569.2092,0.075519
1571.0729,0.073214
1572.9366,0.070699
1574.8002,0.069338
1576.6639,0.068253
1578.5276,0.066137
1580.3912,0.064226
1582.2549,0.062788
1584.1186,0.061515
1585.9822,0.060720
1587.8459,0.060191
1589.7096,0.059826
1591.5733,0.059931
1593.4369,0.060222
1595.3006,0.060661
1597.1643,0.061203
1599.0279,0.062060
1600.8916,0.063255
1602.7553,0.064733
1604.6189,0.066501
1606.4826,0.068671
1608.3463,0.071503
1610.2099,0.074191
1612.0736,0.076548
1613.9373,0.079120
1615.8010,0.083252
1617.6646,0.087524
1619.5283,0.089012
1621.3920,0.091259
1623.2556,0.095440
1625.1193,0.098304
1626.9830,0.100627
1628.8466,0.103047
1630.7103,0.103754
1632.5740,0.104183
1634.4376,0.106230
1636.3013,0.108125
1638.1650,0.107184
1640.0286,0.106031
1641.8923,0.104874
1643.7560,0.103758
1645.6197,0.103813
1647.4833,0.103131
1649.3470,0.100166
1651.2107,0.098260
1653.0743,0.098557
1654.9380,0.095313
1656.8017,0.091555
1658.6653,0.088527
1660.5290,0.085790
1662.3927,0.082880
1664.2563,0.079460
1666.1200,0.076013
1667.9837,0.072976
1669.8474,0.069489
1671.7110,0.066075
1673.5747,0.063084
1675.4384,0.059862
1677.3020,0.055891
1679.1657,0.052570
1681.0294,0.049434
1682.8930,0.046617
1684.7567,0.042851
1686.6204,0.038966
1688.4840,0.035514
1690.3477,0.031951
1692.2114,0.028848
1694.0750,0.026045
1695.9387,0.022543
1697.8024,0.019376
1699.6661,0.016420
1701.5297,0.013264
1703.3934,0.010964
1705.2571,0.009018
1707.1207,0.007275
1708.9844,0.005930
1710.8481,0.004979
1712.7117,0.004210
1714.5754,0.003328
1716.4391,0.002608
1718.3027,0.001696
1720.1664,0.001150
1722.0301,0.000901
1723.8937,0.000640
1725.7574,0.000247
1727.6211,0.000012
1729.4848,-0.000170
1731.3484,-0.000378
1733.2121,-0.000912
1735.0758,-0.000969
1736.9394,-0.000808
1738.8031,-0.001215
1740.6668,-0.001744
1742.5304,-0.002003
1744.3941,-0.002199
1746.2578,-0.002070
1748.1214,-0.002008
1749.9851,-0.002177
1751.8488,-0.002512
1753.7125,-0.002779
1755.5761,-0.002883
1757.4398,-0.002824
1759.3035,-0.003002
1761.1671,-0.003278
1763.0308,-0.003261
1764.8945,-0.003027
1766.7581,-0.003130
1768.6218,-0.003060
1770.4855,-0.003008
1772.3491,-0.003148
1774.2128,-0.003228
1776.0765,-0.003265
1777.9401,-0.003142
1779.8038,-0.003154
1781.6675,-0.003300
1783.5312,-0.003534
1785.3948,-0.003770
1787.2585,-0.003649
1789.1222,-0.003608
1790.9858,-0.003606
1792.8495,-0.003522
1794.7132,-0.003647
1796.5768,-0.003786
1798.4405,-0.003694
1800.3042,-0.003731
1802.1678,-0.003909
1804.0315,-0.003970
1805.8952,-0.003933
1807.7589,-0.003943
1809.6225,-0.004103
1811.4862,-0.004170
1813.3499,-0.004152
1815.2135,-0.004202
1817.0772,-0.004292
1818.9409,-0.004138
1820.8045,-0.003580
1822.6682,-0.003422
1824.5319,-0.003727
1826.3955,-0.003667
1828.2592,-0.003348
1830.1229,-0.003374
1831.9865,-0.003597
1833.8502,-0.003824
1835.7139,-0.003719
1837.5776,-0.003630
1839.4412,-0.003674
1841.3049,-0.003641
1843.1686,-0.003518
1845.0322,-0.003143
1846.8959,-0.003017
1848.7596,-0.003179
1850.6232,-0.003259
1852.4869,-0.003378
1854.3506,-0.003393
1856.2142,-0.003271
1858.0779,-0.003132
1859.9416,-0.002965
1861.8052,-0.002894
1863.6689,-0.002960
1865.5326,-0.002977
1867.3963,-0.002840
1869.2599,-0.002795
1871.1236,-0.002899
1872.9873,-0.002694
1874.8509,-0.002577
1876.7146,-0.002764
1878.5783,-0.002863
1880.4419,-0.002570
1882.3056,-0.002127
1884.1693,-0.001978
1886.0329,-0.002188
1887.8966,-0.001905
1889.7603,-0.001893
1891.6240,-0.002129
1893.4876,-0.002247
1895.3513,-0.002262
1897.2150,-0.002176
1899.0786,-0.002318
1900.9423,-0.001999
1902.8060,-0.001472
1904.6696,-0.001525
1906.5333,-0.001857
1908.3970,-0.002316
1910.2606,-0.002662
1912.1243,-0.002522
1913.9880,-0.002283
1915.8516,-0.001825
1917.7153,-0.001811
1919.5790,-0.002102
1921.4427,-0.002155
1923.3063,-0.001861
1925.1700,-0.001523
1927.0337,-0.002082
1928.8973,-0.002195
1930.7610,-0.001245
1932.6247,-0.000731
1934.4883,-0.001206
1936.3520,-0.001662
1938.2157,-0.001623
1940.0793,-0.001341
1941.9430,-0.000474
1943.8067,0.000621
1945.6704,0.000653
1947.5340,-0.000118
1949.3977,-0.000034
1951.2614,-0.000137
1953.1250,-0.000100
1954.9887,0.000227
1956.8524,-0.000341
1958.7160,0.000146
1960.5797,0.001865
1962.4434,0.002636
1964.3070,0.001611
1966.1707,0.001013
1968.0344,0.001176
1969.8980,0.001721
1971.7617,0.003108
1973.6254,0.004032
1975.4891,0.004698
1977.3527,0.005565
1979.2164,0.005766
1981.0801,0.005122
1982.9437,0.004365
1984.8074,0.003564
1986.6711,0.002644
1988.5347,0.002249
1990.3984,0.001982
1992.2621,0.002081
1994.1257,0.001919
1995.9894,0.001570
1997.8531,0.001822
1999.7167,0.002013
2001.5804,0.002015
2003.4441,0.001885
2005.3078,0.002170
2007.1714,0.003687
2009.0351,0.004738
2010.8988,0.003894
2012.7624,0.003465
2014.6261,0.004354
2016.4898,0.004558
2018.3534,0.004716
2020.2171,0.005109
2022.0808,0.005565
2023.9444,0.005118
2025.8081,0.004111
2027.6718,0.003766
2029.5355,0.003742
2031.3991,0.004791
2033.2628,0.006202
2035.1265,0.006452
2036.9901,0.006373
2038.8538,0.006088
2040.7175,0.005426
2042.5811,0.004827
2044.4448,0.004829
2046.3085,0.005373
2048.1721,0.006156
2050.0358,0.005957
2051.8995,0.004893
2053.7631,0.004242
2055.6268,0.004390
2057.4905,0.004542
2059.3542,0.003911
2061.2178,0.003514
2063.0815,0.004007
2064.9452,0.004782
2066.8088,0.004248
2068.6725,0.003667
2070.5362,0.003805
2072.3998,0.003639
2074.2635,0.003522
2076.1272,0.002880
2077.9908,0.002293
2079.8545,0.002466
2081.7182,0.002648
2083.5819,0.002159
2085.4455,0.001997
2087.3092,0.002095
2089.1729,0.001688
2091.0365,0.001591
2092.9002,0.001421
2094.7639,0.001445
2096.6275,0.002254
2098.4912,0.002382
2100.3549,0.002268
2102.2185,0.002640
2104.0822,0.002702
2105.9459,0.002198
2107.8095,0.002114
2109.6732,0.002023
2111.5369,0.001614
2113.4006,0.001545
2115.2642,0.001899
2117.1279,0.002200
2118.9916,0.001720
2120.8552,0.001308
2122.7189,0.001471
2124.5826,0.001067
2126.4462,0.000367
2128.3099,0.000231
2130.1736,0.000268
2132.0372,0.000541
2133.9009,0.001098
2135.7646,0.001538
2137.6282,0.000995
2139.4919,0.000406
2141.3556,0.001801
2143.2193,0.002697
2145.0829,0.002320
2146.9466,0.001917
2148.8103,0.001635
2150.6739,0.001716
2152.5376,0.002135
2154.4013,0.002322
2156.2649,0.001609
2158.1286,0.001993
2159.9923,0.004302
2161.8559,0.006655
2163.7196,0.007176
2165.5833,0.005826
2167.4470,0.005396
2169.3106,0.005984
2171.1743,0.005847
2173.0380,0.004902
2174.9016,0.003933
2176.7653,0.003327
2178.6290,0.003586
2180.4926,0.004172
2182.3563,0.003929
2184.2200,0.003826
2186.0836,0.003772
2187.9473,0.003163
2189.8110,0.002773
2191.6746,0.003249
2193.5383,0.003992
2195.4020,0.004095
2197.2657,0.003583
2199.1293,0.002844
2200.9930,0.002374
2202.8567,0.002603
2204.7203,0.002629
2206.5840,0.002337
2208.4477,0.002760
2210.3113,0.003224
2212.1750,0.003166
2214.0387,0.003316
2215.9023,0.003402
2217.7660,0.002736
2219.6297,0.001978
2221.4934,0.001661
2223.3570,0.002015
2225.2207,0.002283
2227.0844,0.002243
2228.9480,0.002351
2230.8117,0.001800
2232.6754,0.001361
2234.5390,0.001977
2236.4027,0.002659
2238.2664,0.002518
2240.1300,0.001926
2241.9937,0.001508
2243.8574,0.001360
2245.7210,0.000779
2247.5847,0.000771
2249.4484,0.001905
2251.3121,0.002012
2253.1757,0.001246
2255.0394,0.001017
2256.9031,0.001303
2258.7667,0.001315
2260.6304,0.000584
2262.4941,-0.000007
2264.3577,0.000602
2266.2214,0.001281
2268.0851,0.001244
2269.9487,0.001076
2271.8124,0.001057
2273.6761,0.000949
2275.5397,0.000603
2277.4034,0.000611
2279.2671,0.000708
2281.1308,0.000718
2282.9944,0.001081
2284.8581,0.001157
2286.7218,0.000913
2288.5854,0.000713
2290.4491,0.000457
2292.3128,0.000425
2294.1764,0.000272
2296.0401,0.000072
2297.9038,-0.000031
2299.7674,-0.000175
2301.6311,-0.000282
2303.4948,-0.000498
2305.3585,-0.000527
2307.2221,-0.000214
2309.0858,-0.000246
2310.9495,-0.000433
2312.8131,-0.000302
2314.6768,-0.000396
2316.5405,-0.000560
2318.4041,-0.000317
2320.2678,-0.000075
2322.1315,0.000486
2323.9951,0.000675
2325.8588,-0.000429
2327.7225,-0.001387
2329.5861,-0.001701
2331.4498,-0.001844
2333.3135,-0.001963
2335.1772,-0.002031
2337.0408,-0.001815
2338.9045,-0.001345
2340.7682,-0.000606
2342.6318,-0.000324
2344.4955,-0.001024
2346.3592,-0.001517
2348.2228,-0.001881
2350.0865,-0.002492
2351.9502,-0.002773
2353.8138,-0.002569
2355.6775,-0.002134
2357.5412,-0.001571
2359.4049,-0.001729
2361.2685,-0.002249
2363.1322,-0.001915
2364.9959,-0.001479
2366.8595,-0.001588
2368.7232,-0.001714
2370.5869,-0.001598
2372.4505,-0.001153
2374.3142,-0.000753
2376.1779,-0.000565
2378.0415,-0.000536
2379.9052,-0.000774
2381.7689,-0.001254
2383.6325,-0.001683
2385.4962,-0.001791
2387.3599,-0.001634
2389.2236,-0.001608
2391.0872,-0.001474
2392.9509,-0.001304
2394.8146,-0.001499
2396.6782,-0.001613
2398.5419,-0.001602
2400.4056,-0.001592
2402.2692,-0.001435
2404.1329,-0.001181
2405.9966,-0.001163
2407.8602,-0.001197
2409.7239,-0.001043
2411.5876,-0.000858
2413.4512,-0.000811
2415.3149,-0.000866
2417.1786,-0.000866
2419.0423,-0.000965
2420.9059,-0.001052
2422.7696,-0.000777
2424.6333,-0.000592
2426.4969,-0.000598
2428.3606,-0.000388
2430.2243,-0.000216
2432.0879,-0.000388
2433.9516,-0.000669
2435.8153,-0.000697
2437.6789,-0.000573
2439.5426,-0.000337
2441.4063,0.000001
2443.2700,-0.000095
2445.1336,-0.000289
2446.9973,-0.000098
2448.8610,0.000124
2450.7246,-0.000033
2452.5883,-0.000219
2454.4520,-0.000155
2456.3156,-0.000114
2458.1793,-0.000125
2460.0430,-0.000111
2461.9066,-0.000209
2463.7703,-0.000274
2465.6340,0.000110
2467.4976,0.000429
2469.3613,0.000312
2471.2250,0.000055
2473.0887,0.000029
2474.9523,0.000039
2476.8160,0.000223
2478.6797,0.000499
2480.5433,0.000470
2482.4070,0.000318
2484.2707,0.000216
2486.1343,0.000411
2487.9980,0.000685
2489.8617,0.000578
2491.7253,0.000610
2493.5890,0.000736
2495.4527,0.000655
2497.3164,0.000820
2499.1800,0.001100
2501.0437,0.000948
2502.9074,0.000896
2504.7710,0.001192
2506.6347,0.001128
2508.4984,0.000994
2510.3620,0.001071
2512.2257,0.001126
2514.0894,0.001247
2515.9530,0.001334
2517.8167,0.001295
2519.6804,0.001199
2521.5440,0.001224
2523.4077,0.001477
2525.2714,0.001659
2527.1351,0.001549
2528.9987,0.001420
2530.8624,0.001540
2532.7261,0.001667
2534.5897,0.001393
2536.4534,0.001666
2538.3171,0.001840
2540.1807,0.001787
2542.0444,0.001780
2543.9081,0.001956
2545.7717,0.002337
2547.6354,0.002344
2549.4991,0.002288
2551.3627,0.002429
2553.2264,0.002459
2555.0901,0.002149
2556.9538,0.001903
2558.8174,0.002014
2560.6811,0.002362
2562.5448,0.002815
2564.4084,0.002901
2566.2721,0.002670
2568.1358,0.002749
2569.9994,0.002606
2571.8631,0.002648
2573.7268,0.002797
2575.5904,0.003124
2577.4541,0.003582
2579.3178,0.003518
2581.1815,0.003636
2583.0451,0.003861
2584.9088,0.003581
2586.7725,0.003620
2588.6361,0.003662
2590.4998,0.003473
2592.3635,0.003771
2594.2271,0.004062
2596.0908,0.004057
2597.9545,0.004234
2599.8181,0.004279
2601.6818,0.004192
2603.5455,0.004264
2605.4091,0.004365
