Wavenumber,Intensity
650.4205,0.096721
652.2841,0.096545
654.1478,0.095423
656.0115,0.093464
657.8751,0.092160
659.7388,0.091125
661.6025,0.091041
663.4661,0.090258
665.3298,0.088841
667.1935,0.084673
669.0571,0.087514
670.9208,0.089388
672.7845,0.088758
674.6481,0.088835
676.5118,0.087627
678.3755,0.085598
680.2392,0.085534
682.1028,0.086010
683.9665,0.086728
685.8302,0.085988
687.6938,0.084145
689.5575,0.083605
691.4212,0.084355
693.2848,0.083038
695.1485,0.081290
697.0122,0.081140
698.8758,0.081878
700.7395,0.082068
702.6032,0.081589
704.4669,0.080396
706.3305,0.079556
708.1942,0.078023
710.0579,0.076362
711.9215,0.075079
713.7852,0.074050
715.6489,0.073376
717.5125,0.073833
719.3762,0.073810
721.2399,0.073026
723.1035,0.072281
724.9672,0.071492
726.8309,0.071057
728.6945,0.070419
730.5582,0.069960
732.4219,0.069693
734.2856,0.069070
736.1492,0.068941
738.0129,0.069359
739.8766,0.069546
741.7402,0.069006
743.6039,0.068122
745.4676,0.067763
747.3312,0.067768
749.1949,0.067232
751.0586,0.066392
752.9222,0.065916
754.7859,0.065456
756.6496,0.065026
758.5132,0.064726
760.3769,0.064100
762.2406,0.064087
764.1043,0.064444
765.9679,0.064512
767.8316,0.064157
769.6953,0.063623
771.5589,0.063062
773.4226,0.062496
775.2863,0.062457
777.1499,0.062496
779.0136,0.062117
780.8773,0.061858
782.7409,0.061258
784.6046,0.060826
786.4683,0.060626
788.3320,0.060080
790.1956,0.059663
792.0593,0.059195
793.9230,0.058835
795.7866,0.058622
797.6503,0.057987
799.5140,0.057858
801.3776,0.058226
803.2413,0.058183
805.1050,0.058051
806.9686,0.058051
808.8323,0.057839
810.6960,0.057518
812.5596,0.057180
814.4233,0.057151
816.2870,0.057271
818.1507,0.057262
820.0143,0.056974
821.8780,0.056497
823.7417,0.056172
825.6053,0.056029
827.4690,0.055834
829.3327,0.055704
831.1963,0.055408
833.0600,0.055049
834.9237,0.055021
836.7873,0.054816
838.6510,0.054638
840.5147,0.054598
842.3784,0.054407
844.2420,0.054201
846.1057,0.054062
847.9694,0.054219
849.8330,0.054408
851.6967,0.054335
853.5604,0.054194
855.4240,0.054122
857.2877,0.054180
859.1514,0.054364
861.0150,0.054747
862.8787,0.055055
864.7424,0.055096
866.6060,0.055276
868.4697,0.055551
870.3334,0.055885
872.1971,0.056151
874.0607,0.056265
875.9244,0.056310
877.7881,0.056115
879.6517,0.055901
881.5154,0.055759
883.3791,0.055435
885.2427,0.055373
887.1064,0.055617
888.9701,0.055833
890.8337,0.055865
892.6974,0.055718
894.5611,0.055549
896.4247,0.055358
898.2884,0.055565
900.1521,0.055827
902.0158,0.055799
903.8794,0.055892
905.7431,0.056102
907.6068,0.056339
909.4704,0.056736
911.3341,0.057246
913.1978,0.057484
915.0614,0.057924
916.9251,0.058532
918.7888,0.058947
920.6524,0.059225
922.5161,0.059416
924.3798,0.059450
926.2435,0.059497
928.1071,0.059651
929.9708,0.059755
931.8345,0.059749
933.6981,0.059824
935.5618,0.059801
937.4255,0.059893
939.2891,0.060124
941.1528,0.060392
943.0165,0.060533
944.8801,0.060548
946.7438,0.060386
948.6075,0.060322
950.4711,0.060402
952.3348,0.060509
954.1985,0.060769
956.0622,0.061242
957.9258,0.061819
959.7895,0.062613
961.6532,0.063526
963.5168,0.064250
965.3805,0.064741
967.2442,0.065118
969.1078,0.065319
970.9715,0.065346
972.8352,0.065274
974.6988,0.065248
976.5625,0.065300
978.4262,0.065645
980.2899,0.066085
982.1535,0.066496
984.0172,0.066950
985.8809,0.067549
987.7445,0.068194
989.6082,0.068790
991.4719,0.069465
993.3355,0.070167
995.1992,0.070896
997.0629,0.071752
998.9265,0.072604
1000.7902,0.073330
1002.6539,0.074005
1004.5175,0.074999
1006.3812,0.076208
1008.2449,0.077422
1010.1086,0.078805
1011.9722,0.080407
1013.8359,0.081940
1015.6996,0.083413
1017.5632,0.084771
1019.4269,0.086004
1021.2906,0.087067
1023.1542,0.087829
1025.0179,0.088383
1026.8816,0.089009
1028.7452,0.089608
1030.6089,0.090143
1032.4726,0.090537
1034.3362,0.090772
1036.1999,0.090916
1038.0636,0.091021
1039.9273,0.091004
1041.7909,0.090756
1043.6546,0.090458
1045.5183,0.090381
1047.3819,0.090171
1049.2456,0.089847
1051.1093,0.089647
1052.9729,0.089552
1054.8366,0.089350
1056.7003,0.089284
1058.5639,0.089275
1060.4276,0.089221
1062.2913,0.089208
1064.1550,0.089282
1066.0186,0.089300
1067.8823,0.089236
1069.7460,0.089048
1071.6096,0.088732
1073.4733,0.088076
1075.3370,0.087092
1077.2006,0.085937
1079.0643,0.084570
1080.9280,0.082885
1082.7916,0.081045
1084.6553,0.079334
1086.5190,0.077667
1088.3826,0.076068
1090.2463,0.074733
1092.1100,0.073612
1093.9737,0.072679
1095.8373,0.071771
1097.7010,0.070906
1099.5647,0.070266
1101.4283,0.069718
1103.2920,0.069123
1105.1557,0.068694
1107.0193,0.068477
1108.8830,0.068297
1110.7467,0.068036
1112.6103,0.067807
1114.4740,0.067549
1116.3377,0.067200
1118.2014,0.066794
1120.0650,0.066415
1121.9287,0.066063
1123.7924,0.065717
1125.6560,0.065283
1127.5197,0.064865
1129.3834,0.064344
1131.2470,0.063746
1133.1107,0.063087
1134.9744,0.062331
1136.8380,0.061656
1138.7017,0.061070
1140.5654,0.060498
1142.4290,0.059965
1144.2927,0.059653
1146.1564,0.059593
1148.0201,0.059583
1149.8837,0.059613
1151.7474,0.059677
1153.6111,0.059662
1155.4747,0.059607
1157.3384,0.059418
1159.2021,0.059047
1161.0657,0.058699
1162.9294,0.058149
1164.7931,0.057492
1166.6567,0.056776
1168.5204,0.055851
1170.3841,0.054755
1172.2477,0.053690
1174.1114,0.052650
1175.9751,0.051610
1177.8388,0.050708
1179.7024,0.050138
1181.5661,0.049870
1183.4298,0.049813
1185.2934,0.049895
1187.1571,0.050173
1189.0208,0.050536
1190.8844,0.050948
1192.7481,0.051339
1194.6118,0.051777
1196.4754,0.052392
1198.3391,0.053106
1200.2028,0.053805
1202.0665,0.054497
1203.9301,0.055147
1205.7938,0.055701
1207.6575,0.056052
1209.5211,0.056252
1211.3848,0.056552
1213.2485,0.056954
1215.1121,0.057413
1216.9758,0.058027
1218.8395,0.058627
1220.7031,0.059242
1222.5668,0.060027
1224.4305,0.060858
1226.2941,0.061632
1228.1578,0.062228
1230.0215,0.062633
1231.8852,0.062979
1233.7488,0.063420
1235.6125,0.063788
1237.4762,0.063801
1239.3398,0.063697
1241.2035,0.063582
1243.0672,0.063295
1244.9308,0.062882
1246.7945,0.062368
1248.6582,0.061773
1250.5218,0.061264
1252.3855,0.060771
1254.2492,0.060296
1256.1129,0.059825
1257.9765,0.059389
1259.8402,0.059169
1261.7039,0.058990
1263.5675,0.058726
1265.4312,0.058565
1267.2949,0.058342
1269.1585,0.058103
1271.0222,0.057985
1272.8859,0.057895
1274.7495,0.057709
1276.6132,0.057596
1278.4769,0.057548
1280.3405,0.057422
1282.2042,0.057271
1284.0679,0.057147
1285.9316,0.057049
1287.7952,0.057075
1289.6589,0.057071
1291.5226,0.057113
1293.3862,0.057274
1295.2499,0.057432
1297.1136,0.057664
1298.9772,0.057953
1300.8409,0.058193
1302.7046,0.058486
1304.5682,0.058714
1306.4319,0.058951
1308.2956,0.059216
1310.1592,0.059365
1312.0229,0.059667
1313.8866,0.059904
1315.7503,0.059713
1317.6139,0.059637
1319.4776,0.059666
1321.3413,0.059442
1323.2049,0.059145
1325.0686,0.059076
1326.9323,0.059026
1328.7959,0.058964
1330.6596,0.058946
1332.5233,0.058977
1334.3869,0.058922
1336.2506,0.058845
1338.1143,0.059244
1339.9780,0.060094
1341.8416,0.060093
1343.7053,0.059682
1345.5690,0.059419
1347.4326,0.059269
1349.2963,0.059276
1351.1600,0.059285
1353.0236,0.059350
1354.8873,0.059558
1356.7510,0.059700
1358.6146,0.059668
1360.4783,0.060246
1362.3420,0.062046
1364.2056,0.063292
1366.0693,0.063632
1367.9330,0.064555
1369.7967,0.065347
1371.6603,0.065830
1373.5240,0.067304
1375.3877,0.068757
1377.2513,0.069162
1379.1150,0.069551
1380.9787,0.070033
1382.8423,0.070273
1384.7060,0.070399
1386.5697,0.071618
1388.4333,0.072782
1390.2970,0.072288
1392.1607,0.071983
1394.0244,0.072927
1395.8880,0.073910
1397.7517,0.074222
1399.6154,0.074643
1401.4790,0.073954
1403.3427,0.073504
1405.2064,0.073713
1407.0700,0.073077
1408.9337,0.072170
1410.7974,0.071745
1412.6610,0.070920
1414.5247,0.069620
1416.3884,0.068889
1418.2520,0.070010
1420.1157,0.070775
1421.9794,0.069649
1423.8431,0.069532
1425.7067,0.069490
1427.5704,0.069356
1429.4341,0.070290
1431.2977,0.071033
1433.1614,0.070803
1435.0251,0.071713
1436.8887,0.074572
1438.7524,0.075011
1440.6161,0.074355
1442.4797,0.074235
1444.3434,0.073904
1446.2071,0.073754
1448.0707,0.074220
1449.9344,0.073657
1451.7981,0.072268
1453.6618,0.070689
1455.5254,0.070436
1457.3891,0.072102
1459.2528,0.070315
1461.1164,0.067327
1462.9801,0.065853
1464.8438,0.065822
1466.7074,0.064583
1468.5711,0.062310
1470.4348,0.060923
1472.2984,0.061458
1474.1621,0.061455
1476.0258,0.060473
1477.8895,0.059398
1479.7531,0.058808
1481.6168,0.059041
1483.4805,0.058876
1485.3441,0.058816
1487.2078,0.060298
1489.0715,0.063549
1490.9351,0.066078
1492.7988,0.065531
1494.6625,0.066036
1496.5261,0.069755
1498.3898,0.073211
1500.2535,0.074219
1502.1171,0.073765
1503.9808,0.073617
1505.8445,0.077968
1507.7082,0.086668
1509.5718,0.087353
1511.4355,0.087192
1513.2992,0.087795
1515.1628,0.088758
1517.0265,0.090103
1518.8902,0.090208
1520.7538,0.091445
1522.6175,0.093085
1524.4812,0.093028
1526.3448,0.093918
1528.2085,0.094388
1530.0722,0.094021
1531.9359,0.094264
1533.7995,0.095310
1535.6632,0.093898
1537.5269,0.092605
1539.3905,0.093549
1541.2542,0.094619
1543.1179,0.093906
1544.9815,0.092873
1546.8452,0.090725
1548.7089,0.089086
1550.5725,0.087394
1552.4362,0.085226
1554.2999,0.082876
1556.1635,0.080156
1558.0272,0.079721
1559.8909,0.079954
1561.7546,0.076914
1563.6182,0.074775
1565.4819,0.072988
1567.3456,0.071505
1569.2092,0.071042
1571.0729,0.069604
1572.9366,0.067528
1574.8002,0.067313
1576.6639,0.068472
1578.5276,0.067593
1580.3912,0.066736
1582.2549,0.066747
1584.1186,0.066875
1585.9822,0.067111
1587.8459,0.067776
1589.7096,0.068844
1591.5733,0.069930
1593.4369,0.071178
1595.3006,0.072829
1597.1643,0.074301
1599.0279,0.075851
1600.8916,0.077612
1602.7553,0.079356
1604.6189,0.081331
1606.4826,0.083539
1608.3463,0.086026
1610.2099,0.088431
1612.0736,0.090148
1613.9373,0.091784
1615.8010,0.095053
1617.6646,0.098578
1619.5283,0.099238
1621.3920,0.100188
1623.2556,0.102684
1625.1193,0.104253
1626.9830,0.105038
1628.8466,0.105885
1630.7103,0.105876
1632.5740,0.105347
1634.4376,0.105699
1636.3013,0.105957
1638.1650,0.104477
1640.0286,0.102956
1641.8923,0.101264
1643.7560,0.099298
1645.6197,0.098066
1647.4833,0.096344
1649.3470,0.093677
1651.2107,0.092461
1653.0743,0.091823
1654.9380,0.088599
1656.8017,0.086181
1658.6653,0.083844
1660.5290,0.081543
1662.3927,0.079002
1664.2563,0.075854
1666.1200,0.073216
1667.9837,0.070933
1669.8474,0.067824
1671.7110,0.064596
1673.5747,0.062200
1675.4384,0.059877
1677.3020,0.057027
1679.1657,0.054479
1681.0294,0.051418
1682.8930,0.048907
1684.7567,0.045905
1686.6204,0.042827
1688.4840,0.040576
1690.3477,0.037861
1692.2114,0.035046
1694.0750,0.032599
1695.9387,0.029360
1697.8024,0.026339
1699.6661,0.024467
1701.5297,0.021807
1703.3934,0.020225
1705.2571,0.019077
1707.1207,0.017717
1708.9844,0.016845
1710.8481,0.015867
1712.7117,0.014936
1714.5754,0.014320
1716.4391,0.013775
1718.3027,0.012964
1720.1664,0.012552
1722.0301,0.012297
1723.8937,0.011921
1725.7574,0.011445
1727.6211,0.010942
1729.4848,0.010458
1731.3484,0.010049
1733.2121,0.009418
1735.0758,0.008836
1736.9394,0.008643
1738.8031,0.008191
1740.6668,0.007512
1742.5304,0.007365
1744.3941,0.007322
1746.2578,0.007061
1748.1214,0.006718
1749.9851,0.006490
1751.8488,0.006225
1753.7125,0.006233
1755.5761,0.006178
1757.4398,0.006006
1759.3035,0.005883
1761.1671,0.005794
1763.0308,0.005443
1764.8945,0.005280
1766.7581,0.005233
1768.6218,0.005300
1770.4855,0.005403
1772.3491,0.005223
1774.2128,0.005081
1776.0765,0.005192
1777.9401,0.005323
1779.8038,0.005417
1781.6675,0.005342
1783.5312,0.005165
1785.3948,0.005053
1787.2585,0.005075
1789.1222,0.005081
1790.9858,0.005077
1792.8495,0.004954
1794.7132,0.004931
1796.5768,0.005030
1798.4405,0.005032
1800.3042,0.004898
1802.1678,0.004974
1804.0315,0.004931
1805.8952,0.004719
1807.7589,0.004732
1809.6225,0.004828
1811.4862,0.004739
1813.3499,0.004590
1815.2135,0.004429
1817.0772,0.004373
1818.9409,0.004573
1820.8045,0.004521
1822.6682,0.004366
1824.5319,0.004571
1826.3955,0.004687
1828.2592,0.004706
1830.1229,0.004474
1831.9865,0.004332
1833.8502,0.004523
1835.7139,0.004635
1837.5776,0.004531
1839.4412,0.004458
1841.3049,0.004143
1843.1686,0.003942
1845.0322,0.004170
1846.8959,0.004631
1848.7596,0.004686
1850.6232,0.004516
1852.4869,0.004556
1854.3506,0.004670
1856.2142,0.004432
1858.0779,0.004196
1859.9416,0.004126
1861.8052,0.004202
1863.6689,0.004293
1865.5326,0.004105
1867.3963,0.003588
1869.2599,0.003618
1871.1236,0.004153
1872.9873,0.004305
1874.8509,0.004359
1876.7146,0.004455
1878.5783,0.004345
1880.4419,0.004459
1882.3056,0.004570
1884.1693,0.004370
1886.0329,0.004149
1887.8966,0.003721
1889.7603,0.003406
1891.6240,0.003842
1893.4876,0.004069
1895.3513,0.003944
1897.2150,0.003942
1899.0786,0.004181
1900.9423,0.004215
1902.8060,0.004024
1904.6696,0.003720
1906.5333,0.003592
1908.3970,0.003570
1910.2606,0.003596
1912.1243,0.003556
1913.9880,0.003441
1915.8516,0.003273
1917.7153,0.003380
1919.5790,0.002980
1921.4427,0.003009
1923.3063,0.003415
1925.1700,0.003254
1927.0337,0.003174
1928.8973,0.002917
1930.7610,0.002559
1932.6247,0.002731
1934.4883,0.003073
1936.3520,0.002864
1938.2157,0.002752
1940.0793,0.002521
1941.9430,0.002256
1943.8067,0.002787
1945.6704,0.002723
1947.5340,0.002227
1949.3977,0.001885
1951.2614,0.001641
1953.1250,0.001789
1954.9887,0.001513
1956.8524,0.000523
1958.7160,0.000698
1960.5797,0.000871
1962.4434,0.001353
1964.3070,0.000640
1966.1707,-0.000231
1968.0344,0.000840
1969.8980,0.001323
1971.7617,0.000782
1973.6254,0.001099
1975.4891,0.001340
1977.3527,0.002445
1979.2164,0.002657
1981.0801,0.002338
1982.9437,0.002969
1984.8074,0.002376
1986.6711,0.001360
1988.5347,0.001687
1990.3984,0.002687
1992.2621,0.002395
1994.1257,0.001880
1995.9894,0.001898
1997.8531,0.001648
1999.7167,0.001689
2001.5804,0.001801
2003.4441,0.000841
2005.3078,-0.000367
2007.1714,-0.000288
2009.0351,0.000638
2010.8988,0.000455
2012.7624,-0.000451
2014.6261,0.000042
2016.4898,0.000969
2018.3534,0.000747
2020.2171,-0.000360
2022.0808,-0.000025
2023.9444,0.001585
2025.8081,0.002213
2027.6718,0.002447
2029.5355,0.002578
2031.3991,0.001355
2033.2628,0.001725
2035.1265,0.003210
2036.9901,0.004280
2038.8538,0.005190
2040.7175,0.005214
2042.5811,0.004827
2044.4448,0.006168
2046.3085,0.007020
2048.1721,0.006871
2050.0358,0.007690
2051.8995,0.008494
2053.7631,0.008484
2055.6268,0.008294
2057.4905,0.008452
2059.3542,0.008887
2061.2178,0.008767
2063.0815,0.008154
2064.9452,0.007871
2066.8088,0.008309
2068.6725,0.007978
2070.5362,0.007245
2072.3998,0.007321
2074.2635,0.007105
2076.1272,0.006566
2077.9908,0.006585
2079.8545,0.006491
2081.7182,0.006143
2083.5819,0.005672
2085.4455,0.005626
2087.3092,0.005665
2089.1729,0.004816
2091.0365,0.004237
2092.9002,0.004220
2094.7639,0.004050
2096.6275,0.004231
2098.4912,0.004822
2100.3549,0.005117
2102.2185,0.004520
2104.0822,0.004338
2105.9459,0.004617
2107.8095,0.004709
2109.6732,0.004760
2111.5369,0.004640
2113.4006,0.004817
2115.2642,0.005036
2117.1279,0.004508
2118.9916,0.004267
2120.8552,0.004102
2122.7189,0.003775
2124.5826,0.003407
2126.4462,0.002850
2128.3099,0.002628
2130.1736,0.003516
2132.0372,0.003106
2133.9009,0.002119
2135.7646,0.002202
2137.6282,0.002234
2139.4919,0.002475
2141.3556,0.002457
2143.2193,0.001665
2145.0829,0.000634
2146.9466,0.000489
2148.8103,0.000987
2150.6739,0.000917
2152.5376,-0.000399
2154.4013,-0.001669
2156.2649,-0.000839
2158.1286,0.000885
2159.9923,0.002411
2161.8559,0.002799
2163.7196,0.002016
2165.5833,0.001932
2167.4470,0.001916
2169.3106,0.001784
2171.1743,0.002200
2173.0380,0.003366
2174.9016,0.003008
2176.7653,0.001467
2178.6290,0.001903
2180.4926,0.003208
2182.3563,0.003379
2184.2200,0.002574
2186.0836,0.002314
2187.9473,0.003024
2189.8110,0.003353
2191.6746,0.003206
2193.5383,0.003644
2195.4020,0.004315
2197.2657,0.004580
2199.1293,0.004132
2200.9930,0.003825
2202.8567,0.003691
2204.7203,0.004029
2206.5840,0.004742
2208.4477,0.004860
2210.3113,0.005005
2212.1750,0.004812
2214.0387,0.004061
2215.9023,0.004070
2217.7660,0.004361
2219.6297,0.004385
2221.4934,0.004924
2223.3570,0.004802
2225.2207,0.003958
2227.0844,0.004595
2228.9480,0.005591
2230.8117,0.005584
2232.6754,0.005170
2234.5390,0.004973
2236.4027,0.005638
2238.2664,0.005989
2240.1300,0.005887
2241.9937,0.005553
2243.8574,0.005408
2245.7210,0.005403
2247.5847,0.005354
2249.4484,0.005702
2251.3121,0.006024
2253.1757,0.005638
2255.0394,0.005706
2256.9031,0.006517
2258.7667,0.006543
2260.6304,0.006274
2262.4941,0.006069
2264.3577,0.006361
2266.2214,0.006616
2268.0851,0.006369
2269.9487,0.006829
2271.8124,0.007147
2273.6761,0.006746
2275.5397,0.007035
2277.4034,0.007802
2279.2671,0.007938
2281.1308,0.007655
2282.9944,0.007817
2284.8581,0.008469
2286.7218,0.008832
2288.5854,0.008467
2290.4491,0.008424
2292.3128,0.008521
2294.1764,0.008350
2296.0401,0.008308
2297.9038,0.008112
2299.7674,0.007920
2301.6311,0.008071
2303.4948,0.008276
2305.3585,0.008450
2307.2221,0.008621
2309.0858,0.008660
2310.9495,0.008492
2312.8131,0.008266
2314.6768,0.008310
2316.5405,0.008446
2318.4041,0.008259
2320.2678,0.008277
2322.1315,0.008536
2323.9951,0.008545
2325.8588,0.008206
2327.7225,0.007904
2329.5861,0.007649
2331.4498,0.007396
2333.3135,0.007356
2335.1772,0.007459
2337.0408,0.007859
2338.9045,0.008005
2340.7682,0.007987
2342.6318,0.008067
2344.4955,0.008406
2346.3592,0.008217
2348.2228,0.007565
2350.0865,0.007171
2351.9502,0.007279
2353.8138,0.007226
2355.6775,0.006654
2357.5412,0.006783
2359.4049,0.007136
2361.2685,0.007067
2363.1322,0.007229
2364.9959,0.007581
2366.8595,0.007835
2368.7232,0.007854
2370.5869,0.008121
2372.4505,0.008789
2374.3142,0.009257
2376.1779,0.009713
2378.0415,0.009675
2379.9052,0.009257
2381.7689,0.009065
2383.6325,0.009124
2385.4962,0.009213
2387.3599,0.009169
2389.2236,0.008856
2391.0872,0.008651
2392.9509,0.008732
2394.8146,0.008836
2396.6782,0.008977
2398.5419,0.009066
2400.4056,0.008914
2402.2692,0.009141
2404.1329,0.009288
2405.9966,0.009257
2407.8602,0.009421
2409.7239,0.009356
2411.5876,0.009309
2413.4512,0.009205
2415.3149,0.009100
2417.1786,0.009299
2419.0423,0.009565
2420.9059,0.009392
2422.7696,0.009334
2424.6333,0.009658
2426.4969,0.009836
2428.3606,0.009800
2430.2243,0.009754
2432.0879,0.009952
2433.9516,0.009722
2435.8153,0.009341
2437.6789,0.009405
2439.5426,0.009692
2441.4063,0.010083
2443.2700,0.010186
2445.1336,0.010038
2446.9973,0.010020
2448.8610,0.010065
2450.7246,0.010033
2452.5883,0.010129
2454.4520,0.010353
2456.3156,0.010588
2458.1793,0.010586
2460.0430,0.010317
2461.9066,0.010217
2463.7703,0.010432
2465.6340,0.010668
2467.4976,0.010563
2469.3613,0.010429
2471.2250,0.010340
2473.0887,0.010094
2474.9523,0.010090
2476.8160,0.010225
2478.6797,0.010443
2480.5433,0.010607
2482.4070,0.010620
2484.2707,0.010572
2486.1343,0.010476
2487.9980,0.010455
2489.8617,0.010606
2491.7253,0.010945
2493.5890,0.010900
2495.4527,0.010848
2497.3164,0.010891
2499.1800,0.010796
2501.0437,0.010854
2502.9074,0.011017
2504.7710,0.011227
2506.6347,0.011331
2508.4984,0.011326
2510.3620,0.011330
2512.2257,0.011107
2514.0894,0.010818
2515.9530,0.011110
2517.8167,0.011563
2519.6804,0.011608
2521.5440,0.011570
2523.4077,0.011496
2525.2714,0.011445
2527.1351,0.011464
2528.9987,0.011436
2530.8624,0.011708
2532.7261,0.012145
2534.5897,0.012109
2536.4534,0.011849
2538.3171,0.011794
2540.1807,0.012009
2542.0444,0.011939
2543.9081,0.011699
2545.7717,0.012101
2547.6354,0.012372
2549.4991,0.012211
2551.3627,0.012270
2553.2264,0.012401
2555.0901,0.012590
2556.9538,0.012705
2558.8174,0.012651
2560.6811,0.012749
2562.5448,0.012961
2564.4084,0.012808
2566.2721,0.012632
2568.1358,0.012876
2569.9994,0.012939
2571.8631,0.012896
2573.7268,0.013115
2575.5904,0.013348
2577.4541,0.013411
2579.3178,0.013221
2581.1815,0.013311
2583.0451,0.013630
2584.9088,0.013623
2586.7725,0.013723
2588.6361,0.013955
2590.4998,0.013980
2592.3635,0.014022
2594.2271,0.014049
2596.0908,0.014108
2597.9545,0.014381
2599.8181,0.014578
2601.6818,0.014801
2603.5455,0.015120
2605.4091,0.015055
2607.2728,0.014914
2609.1365,0.015136
2611.0002,0.015140
2612.8638,0.015204
2614.7275,0.015617
2616.5912,0.015685
2618.4548,0.015608
2620.3185,0.015634
2622.1822,0.015664
2624.0458,0.015702
