Wavenumber,Intensity
650.4205,0.100229
652.2841,0.098720
654.1478,0.098005
656.0115,0.098517
657.8751,0.098253
659.7388,0.096973
661.6025,0.096878
663.4661,0.096527
665.3298,0.093245
667.1935,0.092650
669.0571,0.098027
670.9208,0.094597
672.7845,0.090304
674.6481,0.088562
676.5118,0.088763
678.3755,0.089372
680.2392,0.088628
682.1028,0.087142
683.9665,0.085667
685.8302,0.084554
687.6938,0.085154
689.5575,0.084522
691.4212,0.082905
693.2848,0.082479
695.1485,0.082721
697.0122,0.083694
698.8758,0.083832
700.7395,0.082455
702.6032,0.080393
704.4669,0.078295
706.3305,0.077497
708.1942,0.076709
710.0579,0.075632
711.9215,0.075105
713.7852,0.074093
715.6489,0.072807
717.5125,0.071601
719.3762,0.070991
721.2399,0.070934
723.1035,0.070192
724.9672,0.068797
726.8309,0.067648
728.6945,0.066867
730.5582,0.066318
732.4219,0.066536
734.2856,0.066553
736.1492,0.065939
738.0129,0.065781
739.8766,0.066064
741.7402,0.065435
743.6039,0.064257
745.4676,0.064138
747.3312,0.063676
749.1949,0.062592
751.0586,0.062016
752.9222,0.061100
754.7859,0.060492
756.6496,0.060485
758.5132,0.059854
760.3769,0.059341
762.2406,0.058946
764.1043,0.058465
765.9679,0.058308
767.8316,0.057892
769.6953,0.057191
771.5589,0.056762
773.4226,0.056707
775.2863,0.056666
777.1499,0.056114
779.0136,0.055450
780.8773,0.055085
782.7409,0.054622
784.6046,0.053724
786.4683,0.053207
788.3320,0.052978
790.1956,0.052739
792.0593,0.052393
793.9230,0.051675
795.7866,0.051240
797.6503,0.051128
799.5140,0.050869
801.3776,0.050823
803.2413,0.050790
805.1050,0.050207
806.9686,0.049527
808.8323,0.049239
810.6960,0.048947
812.5596,0.048728
814.4233,0.048664
816.2870,0.048533
818.1507,0.048536
820.0143,0.048388
821.8780,0.047894
823.7417,0.047287
825.6053,0.046583
827.4690,0.046035
829.3327,0.045564
831.1963,0.045115
833.0600,0.044585
834.9237,0.043908
836.7873,0.043301
838.6510,0.042908
840.5147,0.042764
842.3784,0.042778
844.2420,0.042397
846.1057,0.042023
847.9694,0.042178
849.8330,0.042214
851.6967,0.042142
853.5604,0.042102
855.4240,0.042058
857.2877,0.042160
859.1514,0.042071
861.0150,0.041972
862.8787,0.041855
864.7424,0.041838
866.6060,0.042134
868.4697,0.042512
870.3334,0.042773
872.1971,0.042912
874.0607,0.042821
875.9244,0.042514
877.7881,0.042346
879.6517,0.042328
881.5154,0.042137
883.3791,0.041987
885.2427,0.041825
887.1064,0.041621
888.9701,0.041539
890.8337,0.041425
892.6974,0.041365
894.5611,0.041497
896.4247,0.041515
898.2884,0.041473
900.1521,0.041476
902.0158,0.041499
903.8794,0.041494
905.7431,0.041685
907.6068,0.041967
909.4704,0.042299
911.3341,0.042690
913.1978,0.043039
915.0614,0.043389
916.9251,0.043720
918.7888,0.043871
920.6524,0.044033
922.5161,0.044001
924.3798,0.044027
926.2435,0.044283
928.1071,0.044499
929.9708,0.044645
931.8345,0.044620
933.6981,0.044528
935.5618,0.044650
937.4255,0.044926
939.2891,0.045098
941.1528,0.045418
943.0165,0.045860
944.8801,0.046196
946.7438,0.046498
948.6075,0.046784
950.4711,0.047249
952.3348,0.047857
954.1985,0.048456
956.0622,0.049171
957.9258,0.050008
959.7895,0.050943
961.6532,0.051968
963.5168,0.052869
965.3805,0.053619
967.2442,0.054124
969.1078,0.054376
970.9715,0.054476
972.8352,0.054484
974.6988,0.054548
976.5625,0.054916
978.4262,0.055438
980.2899,0.056052
982.1535,0.056775
984.0172,0.057337
985.8809,0.057784
987.7445,0.058267
989.6082,0.058874
991.4719,0.059504
993.3355,0.060148
995.1992,0.060916
997.0629,0.061748
998.9265,0.062590
1000.7902,0.063492
1002.6539,0.064432
1004.5175,0.065456
1006.3812,0.066555
1008.2449,0.067767
1010.1086,0.069086
1011.9722,0.070433
1013.8359,0.071935
1015.6996,0.073513
1017.5632,0.075040
1019.4269,0.076363
1021.2906,0.077362
1023.1542,0.078171
1025.0179,0.078963
1026.8816,0.079682
1028.7452,0.080307
1030.6089,0.080802
1032.4726,0.081338
1034.3362,0.081916
1036.1999,0.082411
1038.0636,0.082794
1039.9273,0.083095
1041.7909,0.083363
1043.6546,0.083602
1045.5183,0.083767
1047.3819,0.083928
1049.2456,0.084023
1051.1093,0.084028
1052.9729,0.084052
1054.8366,0.084062
1056.7003,0.084015
1058.5639,0.083791
1060.4276,0.083437
1062.2913,0.083160
1064.1550,0.083023
1066.0186,0.083033
1067.8823,0.083091
1069.7460,0.082912
1071.6096,0.082517
1073.4733,0.082085
1075.3370,0.081512
1077.2006,0.080600
1079.0643,0.079431
1080.9280,0.077923
1082.7916,0.076080
1084.6553,0.074255
1086.5190,0.072428
1088.3826,0.070689
1090.2463,0.069146
1092.1100,0.067790
1093.9737,0.066696
1095.8373,0.065680
1097.7010,0.064704
1099.5647,0.063961
1101.4283,0.063376
1103.2920,0.062834
1105.1557,0.062358
1107.0193,0.062050
1108.8830,0.061876
1110.7467,0.061728
1112.6103,0.061726
1114.4740,0.061735
1116.3377,0.061680
1118.2014,0.061488
1120.0650,0.061121
1121.9287,0.060670
1123.7924,0.060254
1125.6560,0.059755
1127.5197,0.059129
1129.3834,0.058408
1131.2470,0.057672
1133.1107,0.056905
1134.9744,0.056057
1136.8380,0.055264
1138.7017,0.054623
1140.5654,0.054057
1142.4290,0.053750
1144.2927,0.053735
1146.1564,0.053806
1148.0201,0.053937
1149.8837,0.054126
1151.7474,0.054273
1153.6111,0.054380
1155.4747,0.054471
1157.3384,0.054517
1159.2021,0.054535
1161.0657,0.054490
1162.9294,0.054401
1164.7931,0.054288
1166.6567,0.053958
1168.5204,0.053491
1170.3841,0.052877
1172.2477,0.051921
1174.1114,0.050859
1175.9751,0.049802
1177.8388,0.048811
1179.7024,0.048198
1181.5661,0.047839
1183.4298,0.047772
1185.2934,0.048007
1187.1571,0.048379
1189.0208,0.048822
1190.8844,0.049379
1192.7481,0.050166
1194.6118,0.051053
1196.4754,0.051971
1198.3391,0.052961
1200.2028,0.053989
1202.0665,0.055003
1203.9301,0.055999
1205.7938,0.056964
1207.6575,0.057822
1209.5211,0.058512
1211.3848,0.059208
1213.2485,0.060027
1215.1121,0.060819
1216.9758,0.061583
1218.8395,0.062281
1220.7031,0.062913
1222.5668,0.063510
1224.4305,0.064021
1226.2941,0.064411
1228.1578,0.064725
1230.0215,0.064858
1231.8852,0.064899
1233.7488,0.064848
1235.6125,0.064621
1237.4762,0.064313
1239.3398,0.063986
1241.2035,0.063670
1243.0672,0.063211
1244.9308,0.062608
1246.7945,0.061886
1248.6582,0.061214
1250.5218,0.060631
1252.3855,0.060010
1254.2492,0.059391
1256.1129,0.058828
1257.9765,0.058313
1259.8402,0.057905
1261.7039,0.057534
1263.5675,0.057191
1265.4312,0.056933
1267.2949,0.056636
1269.1585,0.056273
1271.0222,0.056099
1272.8859,0.056057
1274.7495,0.055878
1276.6132,0.055743
1278.4769,0.055740
1280.3405,0.055818
1282.2042,0.055716
1284.0679,0.055685
1285.9316,0.055794
1287.7952,0.056060
1289.6589,0.056100
1291.5226,0.055998
1293.3862,0.056044
1295.2499,0.056108
1297.1136,0.056215
1298.9772,0.056291
1300.8409,0.056311
1302.7046,0.056377
1304.5682,0.056404
1306.4319,0.056386
1308.2956,0.056262
1310.1592,0.056055
1312.0229,0.055960
1313.8866,0.055769
1315.7503,0.055328
1317.6139,0.055057
1319.4776,0.054834
1321.3413,0.054213
1323.2049,0.053623
1325.0686,0.053368
1326.9323,0.053124
1328.7959,0.052919
1330.6596,0.052818
1332.5233,0.052711
1334.3869,0.052450
1336.2506,0.052378
1338.1143,0.052992
1339.9780,0.053730
1341.8416,0.053560
1343.7053,0.053214
1345.5690,0.053165
1347.4326,0.053095
1349.2963,0.053244
1351.1600,0.053499
1353.0236,0.053789
1354.8873,0.054269
1356.7510,0.054622
1358.6146,0.054780
1360.4783,0.055599
1362.3420,0.057704
1364.2056,0.059126
1366.0693,0.059335
1367.9330,0.060001
1369.7967,0.060440
1371.6603,0.060739
1373.5240,0.062422
1375.3877,0.063771
1377.2513,0.063894
1379.1150,0.064351
1380.9787,0.064661
1382.8423,0.064648
1384.7060,0.064629
1386.5697,0.065741
1388.4333,0.066244
1390.2970,0.064746
1392.1607,0.063788
1394.0244,0.064493
1395.8880,0.064839
1397.7517,0.064226
1399.6154,0.064066
1401.4790,0.062627
1403.3427,0.061667
1405.2064,0.061465
1407.0700,0.060546
1408.9337,0.059720
1410.7974,0.059261
1412.6610,0.058240
1414.5247,0.057053
1416.3884,0.056597
1418.2520,0.058177
1420.1157,0.058879
1421.9794,0.057196
1423.8431,0.057118
1425.7067,0.056888
1427.5704,0.056677
1429.4341,0.057925
1431.2977,0.058337
1433.1614,0.057834
1435.0251,0.059330
1436.8887,0.063194
1438.7524,0.063021
1440.6161,0.061751
1442.4797,0.061663
1444.3434,0.061461
1446.2071,0.061886
1448.0707,0.062749
1449.9344,0.062127
1451.7981,0.060575
1453.6618,0.058945
1455.5254,0.060015
1457.3891,0.064267
1459.2528,0.061956
1461.1164,0.058428
1462.9801,0.057571
1464.8438,0.058906
1466.7074,0.057860
1468.5711,0.055231
1470.4348,0.054187
1472.2984,0.056071
1474.1621,0.056696
1476.0258,0.056139
1477.8895,0.055594
1479.7531,0.055519
1481.6168,0.056730
1483.4805,0.057352
1485.3441,0.058087
1487.2078,0.060875
1489.0715,0.065874
1490.9351,0.069473
1492.7988,0.068749
1494.6625,0.069701
1496.5261,0.074817
1498.3898,0.078268
1500.2535,0.078446
1502.1171,0.077149
1503.9808,0.076930
1505.8445,0.083948
1507.7082,0.092435
1509.5718,0.090474
1511.4355,0.089434
1513.2992,0.089302
1515.1628,0.089549
1517.0265,0.090365
1518.8902,0.089667
1520.7538,0.091531
1522.6175,0.093156
1524.4812,0.091919
1526.3448,0.092661
1528.2085,0.092067
1530.0722,0.090548
1531.9359,0.090823
1533.7995,0.092009
1535.6632,0.088988
1537.5269,0.087378
1539.3905,0.090642
1541.2542,0.091806
1543.1179,0.088988
1544.9815,0.086650
1546.8452,0.083378
1548.7089,0.080894
1550.5725,0.078522
1552.4362,0.075184
1554.2999,0.072127
1556.1635,0.069349
1558.0272,0.070992
1559.8909,0.071680
1561.7546,0.065927
1563.6182,0.062688
1565.4819,0.060823
1567.3456,0.059233
1569.2092,0.059165
1571.0729,0.057807
1572.9366,0.055301
1574.8002,0.055398
1576.6639,0.056889
1578.5276,0.055197
1580.3912,0.053723
1582.2549,0.053485
1584.1186,0.053613
1585.9822,0.053906
1587.8459,0.054198
1589.7096,0.054570
1591.5733,0.055181
1593.4369,0.056332
1595.3006,0.057791
1597.1643,0.059161
1599.0279,0.060506
1600.8916,0.062301
1602.7553,0.064395
1604.6189,0.066521
1606.4826,0.068943
1608.3463,0.071965
1610.2099,0.074473
1612.0736,0.076096
1613.9373,0.077883
1615.8010,0.082777
1617.6646,0.087469
1619.5283,0.087279
1621.3920,0.088603
1623.2556,0.092836
1625.1193,0.094624
1626.9830,0.095526
1628.8466,0.096781
1630.7103,0.096131
1632.5740,0.095311
1634.4376,0.097546
1636.3013,0.100425
1638.1650,0.098117
1640.0286,0.095590
1641.8923,0.093689
1643.7560,0.092056
1645.6197,0.092138
1647.4833,0.091374
1649.3470,0.087122
1651.2107,0.084895
1653.0743,0.086970
1654.9380,0.082932
1656.8017,0.077744
1658.6653,0.073896
1660.5290,0.070829
1662.3927,0.068597
1664.2563,0.065404
1666.1200,0.061714
1667.9837,0.059680
1669.8474,0.058300
1671.7110,0.055355
1673.5747,0.052579
1675.4384,0.050856
1677.3020,0.047968
1679.1657,0.045176
1681.0294,0.042713
1682.8930,0.041338
1684.7567,0.040043
1686.6204,0.036719
1688.4840,0.033922
1690.3477,0.031249
1692.2114,0.028386
1694.0750,0.025915
1695.9387,0.023495
1697.8024,0.020785
1699.6661,0.018972
1701.5297,0.016983
1703.3934,0.014862
1705.2571,0.013262
1707.1207,0.011901
1708.9844,0.010674
1710.8481,0.009526
1712.7117,0.008688
1714.5754,0.008149
1716.4391,0.007680
1718.3027,0.007280
1720.1664,0.006712
1722.0301,0.006085
1723.8937,0.005812
1725.7574,0.005487
1727.6211,0.005308
1729.4848,0.005141
1731.3484,0.004901
1733.2121,0.004870
1735.0758,0.005430
1736.9394,0.005240
1738.8031,0.005154
1740.6668,0.005100
1742.5304,0.004649
1744.3941,0.004354
1746.2578,0.004212
1748.1214,0.003820
1749.9851,0.003448
1751.8488,0.002896
1753.7125,0.002129
1755.5761,0.001378
1757.4398,0.001001
1759.3035,0.000601
1761.1671,0.000471
1763.0308,0.000466
1764.8945,0.000084
1766.7581,-0.000167
1768.6218,-0.000216
1770.4855,-0.000410
1772.3491,-0.000097
1774.2128,-0.000024
1776.0765,-0.000341
1777.9401,-0.000593
1779.8038,-0.000777
1781.6675,-0.000696
1783.5312,-0.000612
1785.3948,-0.000724
1787.2585,-0.000803
1789.1222,-0.000859
1790.9858,-0.000880
1792.8495,-0.000679
1794.7132,-0.000561
1796.5768,-0.000667
1798.4405,-0.000636
1800.3042,-0.000446
1802.1678,-0.000333
1804.0315,-0.000511
1805.8952,-0.000769
1807.7589,-0.000949
1809.6225,-0.001015
1811.4862,-0.000940
1813.3499,-0.000948
1815.2135,-0.001106
1817.0772,-0.001113
1818.9409,-0.000753
1820.8045,-0.000433
1822.6682,-0.000751
1824.5319,-0.000896
1826.3955,-0.000793
1828.2592,-0.000940
1830.1229,-0.000621
1831.9865,-0.000218
1833.8502,-0.000315
1835.7139,-0.000477
1837.5776,-0.000410
1839.4412,-0.000369
1841.3049,-0.000716
1843.1686,-0.000592
1845.0322,0.000029
1846.8959,-0.000003
1848.7596,-0.000275
1850.6232,-0.000470
1852.4869,-0.000712
1854.3506,-0.000600
1856.2142,-0.000219
1858.0779,0.000064
1859.9416,-0.000096
1861.8052,-0.000418
1863.6689,-0.000448
1865.5326,-0.000308
1867.3963,-0.000213
1869.2599,0.000002
1871.1236,0.000099
1872.9873,0.000273
1874.8509,0.000283
1876.7146,0.000081
1878.5783,-0.000099
1880.4419,-0.000291
1882.3056,-0.000047
1884.1693,0.000335
1886.0329,0.000430
1887.8966,0.000353
1889.7603,0.000283
1891.6240,0.000480
1893.4876,0.000194
1895.3513,-0.000125
1897.2150,0.000063
1899.0786,0.000526
1900.9423,0.000583
1902.8060,0.000495
1904.6696,0.000662
1906.5333,0.000634
1908.3970,0.000626
1910.2606,0.000565
1912.1243,0.000564
1913.9880,0.000510
1915.8516,0.000334
1917.7153,0.000662
1919.5790,0.000648
1921.4427,0.000590
1923.3063,0.000844
1925.1700,0.000786
1927.0337,0.000510
1928.8973,0.000419
1930.7610,0.000699
1932.6247,0.001013
1934.4883,0.000536
1936.3520,0.000185
1938.2157,0.000578
1940.0793,0.000816
1941.9430,0.000931
1943.8067,0.000997
1945.6704,0.000877
1947.5340,0.000398
1949.3977,-0.000073
1951.2614,0.000419
1953.1250,0.001363
1954.9887,0.000967
1956.8524,0.000555
1958.7160,0.001092
1960.5797,0.001811
1962.4434,0.001845
1964.3070,0.001481
1966.1707,0.001754
1968.0344,0.001727
1969.8980,0.001858
1971.7617,0.002202
1973.6254,0.002390
1975.4891,0.002868
1977.3527,0.004157
1979.2164,0.005327
1981.0801,0.004786
1982.9437,0.003190
1984.8074,0.002913
1986.6711,0.003914
1988.5347,0.004562
1990.3984,0.003789
1992.2621,0.003180
1994.1257,0.003165
1995.9894,0.003290
1997.8531,0.003524
1999.7167,0.002998
2001.5804,0.003056
2003.4441,0.003277
2005.3078,0.002822
2007.1714,0.002902
2009.0351,0.002651
2010.8988,0.002221
2012.7624,0.002280
2014.6261,0.003253
2016.4898,0.004826
2018.3534,0.004389
2020.2171,0.003063
2022.0808,0.004372
2023.9444,0.004744
2025.8081,0.002978
2027.6718,0.003161
2029.5355,0.004487
2031.3991,0.005681
2033.2628,0.006719
2035.1265,0.006403
2036.9901,0.006079
2038.8538,0.006524
2040.7175,0.006938
2042.5811,0.006628
2044.4448,0.006788
2046.3085,0.008102
2048.1721,0.009085
2050.0358,0.008891
2051.8995,0.007725
2053.7631,0.007040
2055.6268,0.007089
2057.4905,0.006967
2059.3542,0.006687
2061.2178,0.006163
2063.0815,0.006077
2064.9452,0.006841
2066.8088,0.006715
2068.6725,0.005711
2070.5362,0.005812
2072.3998,0.006281
2074.2635,0.005585
2076.1272,0.005076
2077.9908,0.005221
2079.8545,0.005370
2081.7182,0.005259
2083.5819,0.004950
2085.4455,0.004497
2087.3092,0.003930
2089.1729,0.003706
2091.0365,0.003949
2092.9002,0.003929
2094.7639,0.003847
2096.6275,0.003951
2098.4912,0.003349
2100.3549,0.003098
2102.2185,0.003389
2104.0822,0.003665
2105.9459,0.004205
2107.8095,0.004257
2109.6732,0.004061
2111.5369,0.004030
2113.4006,0.004484
2115.2642,0.004589
2117.1279,0.003837
2118.9916,0.003576
2120.8552,0.003276
2122.7189,0.002649
2124.5826,0.002345
2126.4462,0.002280
2128.3099,0.002261
2130.1736,0.002190
2132.0372,0.002367
2133.9009,0.002580
2135.7646,0.002889
2137.6282,0.003370
2139.4919,0.003393
2141.3556,0.002904
2143.2193,0.002370
2145.0829,0.002855
2146.9466,0.003276
2148.8103,0.002936
2150.6739,0.002864
2152.5376,0.003190
2154.4013,0.004309
2156.2649,0.005032
2158.1286,0.006114
2159.9923,0.008409
2161.8559,0.008445
2163.7196,0.008311
2165.5833,0.009054
2167.4470,0.007724
2169.3106,0.006161
2171.1743,0.005948
2173.0380,0.006280
2174.9016,0.006822
2176.7653,0.006549
2178.6290,0.005724
2180.4926,0.005979
2182.3563,0.007016
2184.2200,0.007278
2186.0836,0.006495
2187.9473,0.006113
2189.8110,0.006318
2191.6746,0.006183
2193.5383,0.006132
2195.4020,0.005993
2197.2657,0.005448
2199.1293,0.006027
2200.9930,0.006731
2202.8567,0.005932
2204.7203,0.005661
2206.5840,0.005824
2208.4477,0.005149
2210.3113,0.005034
2212.1750,0.005366
2214.0387,0.005264
2215.9023,0.005442
2217.7660,0.006140
2219.6297,0.006349
2221.4934,0.005657
2223.3570,0.005300
2225.2207,0.005669
2227.0844,0.005937
2228.9480,0.005378
2230.8117,0.004920
2232.6754,0.005716
2234.5390,0.006425
2236.4027,0.006345
2238.2664,0.005938
2240.1300,0.005718
2241.9937,0.005756
2243.8574,0.005638
2245.7210,0.005416
2247.5847,0.005357
2249.4484,0.005393
2251.3121,0.005012
2253.1757,0.005057
2255.0394,0.005774
2256.9031,0.005780
2258.7667,0.005555
2260.6304,0.005503
2262.4941,0.005145
2264.3577,0.004896
2266.2214,0.004889
2268.0851,0.005150
2269.9487,0.005144
2271.8124,0.004877
2273.6761,0.005484
2275.5397,0.006054
2277.4034,0.005629
2279.2671,0.005607
2281.1308,0.006002
2282.9944,0.006147
2284.8581,0.006090
2286.7218,0.005702
2288.5854,0.005310
2290.4491,0.005303
2292.3128,0.005321
2294.1764,0.005071
2296.0401,0.004628
2297.9038,0.004673
2299.7674,0.004817
2301.6311,0.004446
2303.4948,0.004333
2305.3585,0.004408
2307.2221,0.004598
2309.0858,0.005039
2310.9495,0.005037
2312.8131,0.004892
2314.6768,0.005240
2316.5405,0.005527
2318.4041,0.005580
2320.2678,0.005912
2322.1315,0.006070
2323.9951,0.005855
2325.8588,0.005083
2327.7225,0.004177
2329.5861,0.004006
2331.4498,0.004211
2333.3135,0.004313
2335.1772,0.004221
2337.0408,0.004114
2338.9045,0.004226
2340.7682,0.004915
2342.6318,0.005295
2344.4955,0.005036
2346.3592,0.004869
2348.2228,0.004003
2350.0865,0.002932
2351.9502,0.002754
2353.8138,0.003299
2355.6775,0.003844
2357.5412,0.004017
2359.4049,0.004854
2361.2685,0.005742
2363.1322,0.005775
2364.9959,0.005554
2366.8595,0.005607
2368.7232,0.005449
2370.5869,0.005372
2372.4505,0.005656
2374.3142,0.005428
2376.1779,0.004991
2378.0415,0.004900
2379.9052,0.004904
2381.7689,0.004701
2383.6325,0.004410
2385.4962,0.004108
2387.3599,0.003797
2389.2236,0.003907
2391.0872,0.004020
2392.9509,0.004070
2394.8146,0.004206
2396.6782,0.004134
2398.5419,0.004078
2400.4056,0.004186
2402.2692,0.004119
2404.1329,0.004075
2405.9966,0.004422
2407.8602,0.004832
2409.7239,0.005062
2411.5876,0.005044
2413.4512,0.004689
2415.3149,0.004730
2417.1786,0.004946
2419.0423,0.004624
2420.9059,0.004857
2422.7696,0.005297
2424.6333,0.005320
2426.4969,0.005345
2428.3606,0.005169
2430.2243,0.004963
2432.0879,0.005163
2433.9516,0.005521
2435.8153,0.005450
2437.6789,0.005233
2439.5426,0.005149
2441.4063,0.005396
2443.2700,0.005742
2445.1336,0.005715
2446.9973,0.005672
2448.8610,0.005881
2450.7246,0.005987
2452.5883,0.006144
2454.4520,0.006344
2456.3156,0.006219
2458.1793,0.006019
2460.0430,0.005887
2461.9066,0.005680
2463.7703,0.005711
2465.6340,0.005883
2467.4976,0.006136
2469.3613,0.006355
2471.2250,0.006109
2473.0887,0.006061
2474.9523,0.006459
2476.8160,0.006570
2478.6797,0.006391
2480.5433,0.006436
2482.4070,0.006499
2484.2707,0.006496
2486.1343,0.006703
2487.9980,0.006813
2489.8617,0.006596
2491.7253,0.006453
2493.5890,0.006693
2495.4527,0.006671
2497.3164,0.006581
2499.1800,0.006993
2501.0437,0.007002
2502.9074,0.006564
2504.7710,0.006833
2506.6347,0.007183
2508.4984,0.007148
2510.3620,0.007259
2512.2257,0.007346
2514.0894,0.007018
2515.9530,0.006956
2517.8167,0.007220
2519.6804,0.007424
2521.5440,0.007437
2523.4077,0.007163
2525.2714,0.007006
2527.1351,0.007121
2528.9987,0.007278
2530.8624,0.007519
2532.7261,0.007709
2534.5897,0.008054
2536.4534,0.008198
2538.3171,0.007958
2540.1807,0.007938
2542.0444,0.007799
2543.9081,0.007682
2545.7717,0.007789
2547.6354,0.007843
2549.4991,0.007935
2551.3627,0.008204
2553.2264,0.008245
2555.0901,0.008089
2556.9538,0.008340
2558.8174,0.008547
2560.6811,0.008360
2562.5448,0.008213
2564.4084,0.008200
2566.2721,0.008395
2568.1358,0.008563
2569.9994,0.008760
2571.8631,0.008704
2573.7268,0.008463
2575.5904,0.008495
2577.4541,0.008697
2579.3178,0.008537
2581.1815,0.008673
2583.0451,0.008858
2584.9088,0.008891
2586.7725,0.009104
2588.6361,0.009262
2590.4998,0.009426
2592.3635,0.009495
2594.2271,0.009515
2596.0908,0.009508
2597.9545,0.009683
2599.8181,0.009647
2601.6818,0.009670
2603.5455,0.009756
2605.4091,0.009819
2607.2728,0.009776
2609.1365,0.009771
2611.0002,0.010136
2612.8638,0.010312
2614.7275,0.010194
2616.5912,0.010418
2618.4548,0.010649
2620.3185,0.010621
