Wavenumber,Intensity
650.4205,0.172004
652.2841,0.172916
654.1478,0.172272
656.0115,0.172073
657.8751,0.174335
659.7388,0.174055
661.6025,0.173405
663.4661,0.170471
665.3298,0.166001
667.1935,0.167276
669.0571,0.170242
670.9208,0.165105
672.7845,0.162652
674.6481,0.163333
676.5118,0.162998
678.3755,0.160800
680.2392,0.160535
682.1028,0.158931
683.9665,0.155786
685.8302,0.155146
687.6938,0.154955
689.5575,0.153365
691.4212,0.152516
693.2848,0.151668
695.1485,0.151528
697.0122,0.152357
698.8758,0.152159
700.7395,0.149072
702.6032,0.146483
704.4669,0.145598
706.3305,0.144275
708.1942,0.143196
710.0579,0.142754
711.9215,0.140755
713.7852,0.137491
715.6489,0.135162
717.5125,0.133947
719.3762,0.132849
721.2399,0.130833
723.1035,0.128967
724.9672,0.127850
726.8309,0.126048
728.6945,0.124600
730.5582,0.123848
732.4219,0.123236
734.2856,0.122962
736.1492,0.122685
738.0129,0.121993
739.8766,0.121148
741.7402,0.120349
743.6039,0.119608
745.4676,0.119110
747.3312,0.118002
749.1949,0.115977
751.0586,0.114499
752.9222,0.113841
754.7859,0.113138
756.6496,0.112592
758.5132,0.111894
760.3769,0.110614
762.2406,0.109464
764.1043,0.108665
765.9679,0.108232
767.8316,0.107990
769.6953,0.107134
771.5589,0.105904
773.4226,0.105292
775.2863,0.105010
777.1499,0.104313
779.0136,0.103328
780.8773,0.102568
782.7409,0.102084
784.6046,0.101359
786.4683,0.100459
788.3320,0.099632
790.1956,0.098912
792.0593,0.098063
793.9230,0.097157
795.7866,0.096552
797.6503,0.096185
799.5140,0.095584
801.3776,0.095051
803.2413,0.094722
805.1050,0.094405
806.9686,0.093996
808.8323,0.093246
810.6960,0.092495
812.5596,0.091692
814.4233,0.090527
816.2870,0.089455
818.1507,0.088590
820.0143,0.087509
821.8780,0.086431
823.7417,0.085856
825.6053,0.085270
827.4690,0.084654
829.3327,0.084306
831.1963,0.083964
833.0600,0.083394
834.9237,0.082710
836.7873,0.082094
838.6510,0.081653
840.5147,0.080994
842.3784,0.080194
844.2420,0.079572
846.1057,0.079233
847.9694,0.079038
849.8330,0.078621
851.6967,0.078020
853.5604,0.077859
855.4240,0.077997
857.2877,0.077967
859.1514,0.078014
861.0150,0.078407
862.8787,0.079074
864.7424,0.079625
866.6060,0.080380
868.4697,0.081710
870.3334,0.083106
872.1971,0.084154
874.0607,0.084258
875.9244,0.083421
877.7881,0.082013
879.6517,0.080387
881.5154,0.079061
883.3791,0.078010
885.2427,0.076796
887.1064,0.075884
888.9701,0.075867
890.8337,0.076267
892.6974,0.076356
894.5611,0.076397
896.4247,0.076557
898.2884,0.076671
900.1521,0.076615
902.0158,0.076539
903.8794,0.076661
905.7431,0.076782
907.6068,0.076842
909.4704,0.076989
911.3341,0.077377
913.1978,0.077903
915.0614,0.078302
916.9251,0.078794
918.7888,0.079351
920.6524,0.079794
922.5161,0.080072
924.3798,0.080110
926.2435,0.080085
928.1071,0.080200
929.9708,0.080290
931.8345,0.080361
933.6981,0.080511
935.5618,0.080732
937.4255,0.081052
939.2891,0.081481
941.1528,0.081942
943.0165,0.082475
944.8801,0.083086
946.7438,0.083641
948.6075,0.084126
950.4711,0.084753
952.3348,0.085462
954.1985,0.086213
956.0622,0.087062
957.9258,0.088361
959.7895,0.089986
961.6532,0.091484
963.5168,0.092861
965.3805,0.094177
967.2442,0.095069
969.1078,0.095564
970.9715,0.095984
972.8352,0.096403
974.6988,0.096818
976.5625,0.097298
978.4262,0.097979
980.2899,0.098991
982.1535,0.100155
984.0172,0.101357
985.8809,0.102683
987.7445,0.104108
989.6082,0.105370
991.4719,0.106823
993.3355,0.108545
995.1992,0.110087
997.0629,0.111527
998.9265,0.113152
1000.7902,0.114756
1002.6539,0.116479
1004.5175,0.118462
1006.3812,0.120770
1008.2449,0.123369
1010.1086,0.126092
1011.9722,0.128884
1013.8359,0.131727
1015.6996,0.134596
1017.5632,0.137400
1019.4269,0.140013
1021.2906,0.142205
1023.1542,0.144023
1025.0179,0.145680
1026.8816,0.147051
1028.7452,0.148151
1030.6089,0.148987
1032.4726,0.149630
1034.3362,0.150126
1036.1999,0.150469
1038.0636,0.150723
1039.9273,0.150776
1041.7909,0.150603
1043.6546,0.150389
1045.5183,0.150218
1047.3819,0.149928
1049.2456,0.149528
1051.1093,0.149366
1052.9729,0.149447
1054.8366,0.149391
1056.7003,0.149194
1058.5639,0.149179
1060.4276,0.149154
1062.2913,0.149048
1064.1550,0.149116
1066.0186,0.149298
1067.8823,0.149277
1069.7460,0.149020
1071.6096,0.148420
1073.4733,0.147476
1075.3370,0.146178
1077.2006,0.144277
1079.0643,0.141882
1080.9280,0.139375
1082.7916,0.136710
1084.6553,0.133908
1086.5190,0.131260
1088.3826,0.128955
1090.2463,0.126900
1092.1100,0.125111
1093.9737,0.123669
1095.8373,0.122275
1097.7010,0.120840
1099.5647,0.119700
1101.4283,0.118700
1103.2920,0.117823
1105.1557,0.117209
1107.0193,0.116662
1108.8830,0.115983
1110.7467,0.115414
1112.6103,0.114873
1114.4740,0.114121
1116.3377,0.113250
1118.2014,0.112317
1120.0650,0.111381
1121.9287,0.110449
1123.7924,0.109524
1125.6560,0.108628
1127.5197,0.107684
1129.3834,0.106716
1131.2470,0.105698
1133.1107,0.104558
1134.9744,0.103268
1136.8380,0.102237
1138.7017,0.101530
1140.5654,0.101017
1142.4290,0.100742
1144.2927,0.100690
1146.1564,0.100855
1148.0201,0.101290
1149.8837,0.101853
1151.7474,0.102363
1153.6111,0.102746
1155.4747,0.102947
1157.3384,0.102961
1159.2021,0.102809
1161.0657,0.102576
1162.9294,0.102091
1164.7931,0.101410
1166.6567,0.100574
1168.5204,0.099603
1170.3841,0.098556
1172.2477,0.097289
1174.1114,0.095751
1175.9751,0.094245
1177.8388,0.093020
1179.7024,0.092287
1181.5661,0.092136
1183.4298,0.092422
1185.2934,0.093016
1187.1571,0.093886
1189.0208,0.094867
1190.8844,0.095924
1192.7481,0.097127
1194.6118,0.098351
1196.4754,0.099647
1198.3391,0.101113
1200.2028,0.102561
1202.0665,0.103907
1203.9301,0.105088
1205.7938,0.105973
1207.6575,0.106679
1209.5211,0.107335
1211.3848,0.107889
1213.2485,0.108562
1215.1121,0.109386
1216.9758,0.110351
1218.8395,0.111566
1220.7031,0.112877
1222.5668,0.114271
1224.4305,0.115752
1226.2941,0.117184
1228.1578,0.118387
1230.0215,0.119417
1231.8852,0.120266
1233.7488,0.120877
1235.6125,0.121299
1237.4762,0.121488
1239.3398,0.121303
1241.2035,0.120788
1243.0672,0.120087
1244.9308,0.119215
1246.7945,0.118115
1248.6582,0.116844
1250.5218,0.115597
1252.3855,0.114517
1254.2492,0.113453
1256.1129,0.112422
1257.9765,0.111790
1259.8402,0.111296
1261.7039,0.110630
1263.5675,0.110055
1265.4312,0.109536
1267.2949,0.108944
1269.1585,0.108434
1271.0222,0.108046
1272.8859,0.107592
1274.7495,0.107286
1276.6132,0.107094
1278.4769,0.106840
1280.3405,0.106582
1282.2042,0.106415
1284.0679,0.106349
1285.9316,0.106309
1287.7952,0.106256
1289.6589,0.106308
1291.5226,0.106336
1293.3862,0.106490
1295.2499,0.106927
1297.1136,0.107395
1298.9772,0.107848
1300.8409,0.108336
1302.7046,0.108817
1304.5682,0.109137
1306.4319,0.109500
1308.2956,0.109872
1310.1592,0.110066
1312.0229,0.110266
1313.8866,0.110226
1315.7503,0.109638
1317.6139,0.109132
1319.4776,0.108714
1321.3413,0.108102
1323.2049,0.107469
1325.0686,0.106972
1326.9323,0.106624
1328.7959,0.106377
1330.6596,0.106239
1332.5233,0.106140
1334.3869,0.105876
1336.2506,0.105894
1338.1143,0.106792
1339.9780,0.107838
1341.8416,0.107449
1343.7053,0.106644
1345.5690,0.106429
1347.4326,0.106482
1349.2963,0.106537
1351.1600,0.106362
1353.0236,0.106585
1354.8873,0.107130
1356.7510,0.107159
1358.6146,0.107045
1360.4783,0.108223
1362.3420,0.111235
1364.2056,0.113272
1366.0693,0.113967
1367.9330,0.115632
1369.7967,0.116819
1371.6603,0.117651
1373.5240,0.120455
1375.3877,0.123045
1377.2513,0.123774
1379.1150,0.124902
1380.9787,0.125816
1382.8423,0.126136
1384.7060,0.126471
1386.5697,0.128548
1388.4333,0.130006
1390.2970,0.128704
1392.1607,0.127777
1394.0244,0.128968
1395.8880,0.129888
1397.7517,0.129742
1399.6154,0.129984
1401.4790,0.128219
1403.3427,0.127276
1405.2064,0.127621
1407.0700,0.126620
1408.9337,0.125507
1410.7974,0.124902
1412.6610,0.123882
1414.5247,0.122094
1416.3884,0.121146
1418.2520,0.123585
1420.1157,0.124927
1421.9794,0.122773
1423.8431,0.122997
1425.7067,0.123284
1427.5704,0.123383
1429.4341,0.125704
1431.2977,0.127291
1433.1614,0.127268
1435.0251,0.129809
1436.8887,0.135682
1438.7524,0.136132
1440.6161,0.134888
1442.4797,0.134879
1444.3434,0.134497
1446.2071,0.134716
1448.0707,0.135289
1449.9344,0.133833
1451.7981,0.130957
1453.6618,0.127744
1455.5254,0.127679
1457.3891,0.130848
1459.2528,0.126333
1461.1164,0.120638
1462.9801,0.118239
1464.8438,0.118672
1466.7074,0.115930
1468.5711,0.111225
1470.4348,0.108639
1472.2984,0.109726
1474.1621,0.109346
1476.0258,0.107806
1477.8895,0.106530
1479.7531,0.106077
1481.6168,0.107284
1483.4805,0.107854
1485.3441,0.109083
1487.2078,0.113043
1489.0715,0.120291
1490.9351,0.126333
1492.7988,0.126643
1494.6625,0.129190
1496.5261,0.138049
1498.3898,0.144908
1500.2535,0.147268
1502.1171,0.146836
1503.9808,0.147732
1505.8445,0.158313
1507.7082,0.172172
1509.5718,0.171785
1511.4355,0.172082
1513.2992,0.173285
1515.1628,0.174941
1517.0265,0.176753
1518.8902,0.176444
1520.7538,0.178722
1522.6175,0.180928
1524.4812,0.180037
1526.3448,0.181434
1528.2085,0.181338
1530.0722,0.179913
1531.9359,0.180206
1533.7995,0.181516
1535.6632,0.177848
1537.5269,0.175513
1539.3905,0.177810
1541.2542,0.177989
1543.1179,0.174423
1544.9815,0.170878
1546.8452,0.166261
1548.7089,0.162203
1550.5725,0.157439
1552.4362,0.152263
1554.2999,0.146674
1556.1635,0.141428
1558.0272,0.141400
1559.8909,0.139423
1561.7546,0.132208
1563.6182,0.127789
1565.4819,0.124313
1567.3456,0.121681
1569.2092,0.121034
1571.0729,0.118218
1572.9366,0.114608
1574.8002,0.114256
1576.6639,0.115952
1578.5276,0.114273
1580.3912,0.112716
1582.2549,0.112616
1584.1186,0.113325
1585.9822,0.114305
1587.8459,0.115716
1589.7096,0.117773
1591.5733,0.120377
1593.4369,0.123414
1595.3006,0.127001
1597.1643,0.130467
1599.0279,0.134176
1600.8916,0.138581
1602.7553,0.143688
1604.6189,0.148730
1606.4826,0.153992
1608.3463,0.160002
1610.2099,0.165489
1612.0736,0.169316
1613.9373,0.172892
1615.8010,0.179953
1617.6646,0.186723
1619.5283,0.188062
1621.3920,0.190432
1623.2556,0.195054
1625.1193,0.197673
1626.9830,0.199376
1628.8466,0.200525
1630.7103,0.199793
1632.5740,0.198710
1634.4376,0.199437
1636.3013,0.199411
1638.1650,0.196191
1640.0286,0.192499
1641.8923,0.188905
1643.7560,0.185452
1645.6197,0.183240
1647.4833,0.179190
1649.3470,0.173769
1651.2107,0.170427
1653.0743,0.167402
1654.9380,0.160365
1656.8017,0.154715
1658.6653,0.149257
1660.5290,0.144176
1662.3927,0.138696
1664.2563,0.132664
1666.1200,0.127274
1667.9837,0.122884
1669.8474,0.117818
1671.7110,0.112655
1673.5747,0.108424
1675.4384,0.103741
1677.3020,0.097971
1679.1657,0.093036
1681.0294,0.088054
1682.8930,0.083957
1684.7567,0.078625
1686.6204,0.073165
1688.4840,0.068454
1690.3477,0.063334
1692.2114,0.058160
1694.0750,0.053553
1695.9387,0.047975
1697.8024,0.042887
1699.6661,0.039209
1701.5297,0.035030
1703.3934,0.031874
1705.2571,0.029413
1707.1207,0.026913
1708.9844,0.025100
1710.8481,0.023589
1712.7117,0.022339
1714.5754,0.021343
1716.4391,0.020706
1718.3027,0.020119
1720.1664,0.019443
1722.0301,0.018879
1723.8937,0.018505
1725.7574,0.017870
1727.6211,0.017402
1729.4848,0.017016
1731.3484,0.016683
1733.2121,0.016830
1735.0758,0.017459
1736.9394,0.017071
1738.8031,0.016874
1740.6668,0.017010
1742.5304,0.017085
1744.3941,0.016657
1746.2578,0.016090
1748.1214,0.015330
1749.9851,0.014353
1751.8488,0.013300
1753.7125,0.012480
1755.5761,0.011508
1757.4398,0.010742
1759.3035,0.009907
1761.1671,0.009304
1763.0308,0.008854
1764.8945,0.008493
1766.7581,0.008206
1768.6218,0.007931
1770.4855,0.007523
1772.3491,0.007636
1774.2128,0.007378
1776.0765,0.007056
1777.9401,0.006894
1779.8038,0.006901
1781.6675,0.007038
1783.5312,0.006918
1785.3948,0.006858
1787.2585,0.006997
1789.1222,0.006959
1790.9858,0.006987
1792.8495,0.006907
1794.7132,0.006707
1796.5768,0.006586
1798.4405,0.006581
1800.3042,0.006379
1802.1678,0.006350
1804.0315,0.006316
1805.8952,0.006096
1807.7589,0.005853
1809.6225,0.005868
1811.4862,0.005756
1813.3499,0.005559
1815.2135,0.005508
1817.0772,0.005600
1818.9409,0.005879
1820.8045,0.006128
1822.6682,0.006034
1824.5319,0.005828
1826.3955,0.005685
1828.2592,0.005785
1830.1229,0.005913
1831.9865,0.005586
1833.8502,0.005428
1835.7139,0.005514
1837.5776,0.005416
1839.4412,0.005588
1841.3049,0.005517
1843.1686,0.005197
1845.0322,0.005377
1846.8959,0.005445
1848.7596,0.005124
1850.6232,0.005209
1852.4869,0.005525
1854.3506,0.005597
1856.2142,0.005529
1858.0779,0.005668
1859.9416,0.005518
1861.8052,0.005068
1863.6689,0.004971
1865.5326,0.005299
1867.3963,0.005556
1869.2599,0.005633
1871.1236,0.005571
1872.9873,0.005766
1874.8509,0.005718
1876.7146,0.005279
1878.5783,0.005230
1880.4419,0.005496
1882.3056,0.005533
1884.1693,0.005703
1886.0329,0.005670
1887.8966,0.005692
1889.7603,0.005874
1891.6240,0.005907
1893.4876,0.005244
1895.3513,0.004598
1897.2150,0.005150
1899.0786,0.005650
1900.9423,0.005510
1902.8060,0.005660
1904.6696,0.006037
1906.5333,0.005872
1908.3970,0.005787
1910.2606,0.006248
1912.1243,0.006064
1913.9880,0.005399
1915.8516,0.005144
1917.7153,0.005524
1919.5790,0.005871
1921.4427,0.006185
1923.3063,0.006089
1925.1700,0.005076
1927.0337,0.004750
1928.8973,0.005557
1930.7610,0.005745
1932.6247,0.005970
1934.4883,0.005946
1936.3520,0.005713
1938.2157,0.005840
1940.0793,0.005480
1941.9430,0.004937
1943.8067,0.005443
1945.6704,0.006039
1947.5340,0.005577
1949.3977,0.005006
1951.2614,0.005695
1953.1250,0.006066
1954.9887,0.005638
1956.8524,0.005229
1958.7160,0.005830
1960.5797,0.006667
1962.4434,0.006886
1964.3070,0.006566
1966.1707,0.006007
1968.0344,0.006087
1969.8980,0.006606
1971.7617,0.005600
1973.6254,0.004624
1975.4891,0.005986
1977.3527,0.008789
1979.2164,0.010126
1981.0801,0.009400
1982.9437,0.008137
1984.8074,0.007874
1986.6711,0.007810
1988.5347,0.007640
1990.3984,0.007398
1992.2621,0.007555
1994.1257,0.007577
1995.9894,0.007275
1997.8531,0.007499
1999.7167,0.008427
2001.5804,0.008286
2003.4441,0.007507
2005.3078,0.007286
2007.1714,0.007494
2009.0351,0.008254
2010.8988,0.008596
2012.7624,0.007803
2014.6261,0.007638
2016.4898,0.008502
2018.3534,0.008129
2020.2171,0.006873
2022.0808,0.006706
2023.9444,0.007864
2025.8081,0.009102
2027.6718,0.009627
2029.5355,0.009648
2031.3991,0.010109
2033.2628,0.011551
2035.1265,0.012566
2036.9901,0.012212
2038.8538,0.011838
2040.7175,0.011691
2042.5811,0.010863
2044.4448,0.011711
2046.3085,0.013067
2048.1721,0.013796
2050.0358,0.014222
2051.8995,0.013892
2053.7631,0.013214
2055.6268,0.013483
2057.4905,0.013905
2059.3542,0.013183
2061.2178,0.012820
2063.0815,0.013425
2064.9452,0.013752
2066.8088,0.013253
2068.6725,0.012589
2070.5362,0.012164
2072.3998,0.012369
2074.2635,0.012773
2076.1272,0.012523
2077.9908,0.012433
2079.8545,0.012574
2081.7182,0.011934
2083.5819,0.011618
2085.4455,0.011595
2087.3092,0.011029
2089.1729,0.010820
2091.0365,0.010996
2092.9002,0.010524
2094.7639,0.010353
2096.6275,0.010889
2098.4912,0.011077
2100.3549,0.011242
2102.2185,0.011284
2104.0822,0.010821
2105.9459,0.010338
2107.8095,0.010685
2109.6732,0.011229
2111.5369,0.010997
2113.4006,0.010447
2115.2642,0.010238
2117.1279,0.010186
2118.9916,0.010187
2120.8552,0.010509
2122.7189,0.010221
2124.5826,0.009531
2126.4462,0.009536
2128.3099,0.009614
2130.1736,0.009049
2132.0372,0.007880
2133.9009,0.008091
2135.7646,0.009538
2137.6282,0.009917
2139.4919,0.009833
2141.3556,0.010205
2143.2193,0.010222
2145.0829,0.009581
2146.9466,0.009194
2148.8103,0.008807
2150.6739,0.008711
2152.5376,0.009189
2154.4013,0.009453
2156.2649,0.010413
2158.1286,0.011464
2159.9923,0.012084
2161.8559,0.013126
2163.7196,0.014382
2165.5833,0.014517
2167.4470,0.013613
2169.3106,0.012271
2171.1743,0.011191
2173.0380,0.011237
2174.9016,0.012279
2176.7653,0.012464
2178.6290,0.010970
2180.4926,0.010981
2182.3563,0.012801
2184.2200,0.013495
2186.0836,0.012545
2187.9473,0.011770
2189.8110,0.011754
2191.6746,0.011534
2193.5383,0.011482
2195.4020,0.012183
2197.2657,0.012709
2199.1293,0.012693
2200.9930,0.011859
2202.8567,0.011781
2204.7203,0.012982
2206.5840,0.012599
2208.4477,0.011246
2210.3113,0.011009
2212.1750,0.011643
2214.0387,0.012258
2215.9023,0.012568
2217.7660,0.012570
2219.6297,0.012308
2221.4934,0.011961
2223.3570,0.011689
2225.2207,0.011923
2227.0844,0.012367
2228.9480,0.012329
2230.8117,0.011954
2232.6754,0.012186
2234.5390,0.012806
2236.4027,0.013012
2238.2664,0.012655
2240.1300,0.012130
2241.9937,0.012289
2243.8574,0.012638
2245.7210,0.012197
2247.5847,0.011669
2249.4484,0.011808
2251.3121,0.012050
2253.1757,0.012516
2255.0394,0.012755
2256.9031,0.012176
2258.7667,0.011849
2260.6304,0.012269
2262.4941,0.012845
2264.3577,0.013067
2266.2214,0.013261
2268.0851,0.013060
2269.9487,0.012466
2271.8124,0.012537
2273.6761,0.012991
2275.5397,0.012741
2277.4034,0.012744
2279.2671,0.013289
2281.1308,0.013211
2282.9944,0.013303
2284.8581,0.013580
2286.7218,0.013422
2288.5854,0.013096
2290.4491,0.012789
2292.3128,0.012782
2294.1764,0.013079
2296.0401,0.012959
2297.9038,0.012577
2299.7674,0.012449
2301.6311,0.012446
2303.4948,0.012372
2305.3585,0.012257
2307.2221,0.012492
2309.0858,0.012785
2310.9495,0.012718
2312.8131,0.012586
2314.6768,0.012891
2316.5405,0.013360
2318.4041,0.013565
2320.2678,0.013660
2322.1315,0.013760
2323.9951,0.013807
2325.8588,0.013411
2327.7225,0.012848
2329.5861,0.013059
2331.4498,0.013426
2333.3135,0.013046
2335.1772,0.012737
2337.0408,0.013010
2338.9045,0.013331
2340.7682,0.013388
2342.6318,0.013772
2344.4955,0.014061
2346.3592,0.013260
2348.2228,0.012181
2350.0865,0.011474
2351.9502,0.011349
2353.8138,0.011988
2355.6775,0.012180
2357.5412,0.011825
2359.4049,0.012318
2361.2685,0.013645
2363.1322,0.014622
2364.9959,0.014743
2366.8595,0.015122
2368.7232,0.015625
2370.5869,0.015430
2372.4505,0.015385
2374.3142,0.015182
2376.1779,0.014603
2378.0415,0.014416
2379.9052,0.014138
2381.7689,0.013480
2383.6325,0.013144
2385.4962,0.013141
2387.3599,0.013136
2389.2236,0.013119
2391.0872,0.013200
2392.9509,0.013395
2394.8146,0.013446
2396.6782,0.013546
2398.5419,0.013416
2400.4056,0.013044
2402.2692,0.013208
2404.1329,0.013553
2405.9966,0.013659
2407.8602,0.013834
2409.7239,0.014133
2411.5876,0.014268
2413.4512,0.014099
2415.3149,0.013828
2417.1786,0.013681
2419.0423,0.013770
2420.9059,0.014121
2422.7696,0.014323
2424.6333,0.014387
2426.4969,0.014848
2428.3606,0.015145
2430.2243,0.015007
2432.0879,0.014819
2433.9516,0.014710
2435.8153,0.014683
2437.6789,0.014815
2439.5426,0.014940
2441.4063,0.015186
2443.2700,0.015453
2445.1336,0.015191
2446.9973,0.015298
2448.8610,0.015875
2450.7246,0.015902
2452.5883,0.015646
2454.4520,0.015718
2456.3156,0.015664
2458.1793,0.015596
2460.0430,0.015702
2461.9066,0.015830
2463.7703,0.015745
2465.6340,0.015855
2467.4976,0.016154
2469.3613,0.016174
2471.2250,0.015883
2473.0887,0.015893
2474.9523,0.016322
2476.8160,0.016646
2478.6797,0.016648
2480.5433,0.016710
2482.4070,0.016978
2484.2707,0.017111
2486.1343,0.017016
2487.9980,0.017008
2489.8617,0.016993
2491.7253,0.017251
2493.5890,0.017713
2495.4527,0.017671
2497.3164,0.017370
2499.1800,0.017385
2501.0437,0.017526
2502.9074,0.017698
2504.7710,0.018028
2506.6347,0.018228
2508.4984,0.018140
2510.3620,0.018084
2512.2257,0.017757
2514.0894,0.017645
2515.9530,0.018150
2517.8167,0.018599
2519.6804,0.018345
2521.5440,0.017909
2523.4077,0.018193
2525.2714,0.018750
2527.1351,0.018811
2528.9987,0.018539
2530.8624,0.018229
2532.7261,0.018483
2534.5897,0.018771
2536.4534,0.018639
2538.3171,0.018946
2540.1807,0.019539
2542.0444,0.019579
2543.9081,0.019271
2545.7717,0.019416
2547.6354,0.019721
2549.4991,0.019319
2551.3627,0.018877
2553.2264,0.019291
2555.0901,0.019724
2556.9538,0.019634
2558.8174,0.019666
2560.6811,0.019754
2562.5448,0.019810
2564.4084,0.019903
2566.2721,0.020115
2568.1358,0.020316
2569.9994,0.020386
2571.8631,0.020159
2573.7268,0.019988
2575.5904,0.020421
2577.4541,0.020797
2579.3178,0.020913
2581.1815,0.021222
2583.0451,0.021164
2584.9088,0.021195
2586.7725,0.021618
2588.6361,0.021577
2590.4998,0.021148
2592.3635,0.021288
2594.2271,0.021855
2596.0908,0.022125
2597.9545,0.022334
2599.8181,0.022558
2601.6818,0.022527
2603.5455,0.022518
2605.4091,0.022710
2607.2728,0.022702
2609.1365,0.022838
2611.0002,0.023018
2612.8638,0.023144
2614.7275,0.023308
2616.5912,0.023448
2618.4548,0.023580
2620.3185,0.023782
2622.1822,0.023917
2624.0458,0.024006
2625.9095,0.024218
