Wavenumber,Intensity
650.4205,0.028790
652.2841,0.028095
654.1478,0.027397
656.0115,0.027069
657.8751,0.026713
659.7388,0.027461
661.6025,0.027262
663.4661,0.026117
665.3298,0.026335
667.1935,0.027276
669.0571,0.027079
670.9208,0.026334
672.7845,0.026340
674.6481,0.026695
676.5118,0.027085
678.3755,0.026120
680.2392,0.025594
682.1028,0.026123
683.9665,0.025994
685.8302,0.025100
687.6938,0.024940
689.5575,0.025482
691.4212,0.025558
693.2848,0.025319
695.1485,0.025194
697.0122,0.024611
698.8758,0.024087
700.7395,0.023995
702.6032,0.024078
704.4669,0.024190
706.3305,0.024303
708.1942,0.024535
710.0579,0.024573
711.9215,0.024344
713.7852,0.024012
715.6489,0.023626
717.5125,0.023641
719.3762,0.023562
721.2399,0.023319
723.1035,0.023248
724.9672,0.023028
726.8309,0.022964
728.6945,0.023036
730.5582,0.022990
732.4219,0.022962
734.2856,0.022546
736.1492,0.022170
738.0129,0.022199
739.8766,0.022284
741.7402,0.022185
743.6039,0.021962
745.4676,0.021767
747.3312,0.021606
749.1949,0.021485
751.0586,0.021421
752.9222,0.021256
754.7859,0.021092
756.6496,0.020945
758.5132,0.020824
760.3769,0.020568
762.2406,0.020359
764.1043,0.020363
765.9679,0.020342
767.8316,0.020231
769.6953,0.019957
771.5589,0.019737
773.4226,0.019672
775.2863,0.019512
777.1499,0.019400
779.0136,0.019254
780.8773,0.018944
782.7409,0.018713
784.6046,0.018489
786.4683,0.018291
788.3320,0.018306
790.1956,0.018152
792.0593,0.017810
793.9230,0.017590
795.7866,0.017453
797.6503,0.017400
799.5140,0.017256
801.3776,0.017043
803.2413,0.016777
805.1050,0.016426
806.9686,0.016384
808.8323,0.016444
810.6960,0.016331
812.5596,0.016155
814.4233,0.015906
816.2870,0.015691
818.1507,0.015525
820.0143,0.015385
821.8780,0.015360
823.7417,0.015297
825.6053,0.015108
827.4690,0.014973
829.3327,0.014964
831.1963,0.014963
833.0600,0.014974
834.9237,0.014952
836.7873,0.014790
838.6510,0.014623
840.5147,0.014583
842.3784,0.014511
844.2420,0.014446
846.1057,0.014507
847.9694,0.014556
849.8330,0.014502
851.6967,0.014457
853.5604,0.014333
855.4240,0.014343
857.2877,0.014563
859.1514,0.014515
861.0150,0.014322
862.8787,0.014177
864.7424,0.014074
866.6060,0.014066
868.4697,0.014044
870.3334,0.014060
872.1971,0.014057
874.0607,0.013957
875.9244,0.013924
877.7881,0.013908
879.6517,0.013887
881.5154,0.013842
883.3791,0.013703
885.2427,0.013538
887.1064,0.013418
888.9701,0.013314
890.8337,0.013214
892.6974,0.013170
894.5611,0.013135
896.4247,0.013074
898.2884,0.012985
900.1521,0.012921
902.0158,0.012946
903.8794,0.012978
905.7431,0.012941
907.6068,0.012898
909.4704,0.012877
911.3341,0.012903
913.1978,0.012981
915.0614,0.013071
916.9251,0.013108
918.7888,0.013145
920.6524,0.013229
922.5161,0.013262
924.3798,0.013281
926.2435,0.013286
928.1071,0.013215
929.9708,0.013201
931.8345,0.013190
933.6981,0.013122
935.5618,0.013097
937.4255,0.013157
939.2891,0.013212
941.1528,0.013174
943.0165,0.013162
944.8801,0.013127
946.7438,0.013061
948.6075,0.013074
950.4711,0.013098
952.3348,0.013076
954.1985,0.013052
956.0622,0.013064
957.9258,0.013100
959.7895,0.013086
961.6532,0.013112
963.5168,0.013242
965.3805,0.013373
967.2442,0.013505
969.1078,0.013667
970.9715,0.013816
972.8352,0.013996
974.6988,0.014206
976.5625,0.014440
978.4262,0.014590
980.2899,0.014689
982.1535,0.014897
984.0172,0.015161
985.8809,0.015345
987.7445,0.015503
989.6082,0.015572
991.4719,0.015538
993.3355,0.015494
995.1992,0.015470
997.0629,0.015436
998.9265,0.015388
1000.7902,0.015346
1002.6539,0.015377
1004.5175,0.015461
1006.3812,0.015514
1008.2449,0.015589
1010.1086,0.015724
1011.9722,0.015825
1013.8359,0.015933
1015.6996,0.016153
1017.5632,0.016384
1019.4269,0.016555
1021.2906,0.016730
1023.1542,0.016950
1025.0179,0.017204
1026.8816,0.017470
1028.7452,0.017728
1030.6089,0.017965
1032.4726,0.018217
1034.3362,0.018476
1036.1999,0.018748
1038.0636,0.019055
1039.9273,0.019311
1041.7909,0.019506
1043.6546,0.019685
1045.5183,0.019781
1047.3819,0.019809
1049.2456,0.019778
1051.1093,0.019724
1052.9729,0.019681
1054.8366,0.019626
1056.7003,0.019643
1058.5639,0.019782
1060.4276,0.019972
1062.2913,0.020178
1064.1550,0.020378
1066.0186,0.020647
1067.8823,0.020958
1069.7460,0.021220
1071.6096,0.021475
1073.4733,0.021721
1075.3370,0.021922
1077.2006,0.022086
1079.0643,0.022194
1080.9280,0.022215
1082.7916,0.022145
1084.6553,0.022053
1086.5190,0.021890
1088.3826,0.021654
1090.2463,0.021405
1092.1100,0.021120
1093.9737,0.020801
1095.8373,0.020569
1097.7010,0.020392
1099.5647,0.020178
1101.4283,0.019978
1103.2920,0.019811
1105.1557,0.019596
1107.0193,0.019388
1108.8830,0.019237
1110.7467,0.019108
1112.6103,0.019002
1114.4740,0.018885
1116.3377,0.018708
1118.2014,0.018527
1120.0650,0.018361
1121.9287,0.018163
1123.7924,0.017926
1125.6560,0.017680
1127.5197,0.017444
1129.3834,0.017180
1131.2470,0.016906
1133.1107,0.016667
1134.9744,0.016465
1136.8380,0.016250
1138.7017,0.016084
1140.5654,0.015975
1142.4290,0.015830
1144.2927,0.015692
1146.1564,0.015510
1148.0201,0.015328
1149.8837,0.015186
1151.7474,0.015022
1153.6111,0.014876
1155.4747,0.014747
1157.3384,0.014618
1159.2021,0.014488
1161.0657,0.014352
1162.9294,0.014214
1164.7931,0.014058
1166.6567,0.013936
1168.5204,0.013859
1170.3841,0.013721
1172.2477,0.013564
1174.1114,0.013439
1175.9751,0.013338
1177.8388,0.013248
1179.7024,0.013180
1181.5661,0.013154
1183.4298,0.013160
1185.2934,0.013178
1187.1571,0.013165
1189.0208,0.013125
1190.8844,0.013132
1192.7481,0.013158
1194.6118,0.013159
1196.4754,0.013188
1198.3391,0.013156
1200.2028,0.013135
1202.0665,0.013149
1203.9301,0.013132
1205.7938,0.013146
1207.6575,0.013147
1209.5211,0.013114
1211.3848,0.013122
1213.2485,0.013081
1215.1121,0.013055
1216.9758,0.013066
1218.8395,0.013091
1220.7031,0.013074
1222.5668,0.013062
1224.4305,0.013084
1226.2941,0.013098
1228.1578,0.013073
1230.0215,0.013095
1231.8852,0.013125
1233.7488,0.013122
1235.6125,0.013130
1237.4762,0.013139
1239.3398,0.013099
1241.2035,0.013113
1243.0672,0.013140
1244.9308,0.013153
1246.7945,0.013156
1248.6582,0.013088
1250.5218,0.013010
1252.3855,0.012974
1254.2492,0.012940
1256.1129,0.012867
1257.9765,0.012792
1259.8402,0.012779
1261.7039,0.012766
1263.5675,0.012733
1265.4312,0.012685
1267.2949,0.012628
1269.1585,0.012579
1271.0222,0.012562
1272.8859,0.012543
1274.7495,0.012549
1276.6132,0.012556
1278.4769,0.012536
1280.3405,0.012505
1282.2042,0.012492
1284.0679,0.012482
1285.9316,0.012543
1287.7952,0.012575
1289.6589,0.012560
1291.5226,0.012549
1293.3862,0.012596
1295.2499,0.012692
1297.1136,0.012757
1298.9772,0.012788
1300.8409,0.012837
1302.7046,0.012896
1304.5682,0.012971
1306.4319,0.013031
1308.2956,0.013101
1310.1592,0.013128
1312.0229,0.013146
1313.8866,0.013185
1315.7503,0.013241
1317.6139,0.013335
1319.4776,0.013386
1321.3413,0.013320
1323.2049,0.013286
1325.0686,0.013302
1326.9323,0.013292
1328.7959,0.013325
1330.6596,0.013355
1332.5233,0.013318
1334.3869,0.013237
1336.2506,0.013280
1338.1143,0.013557
1339.9780,0.013758
1341.8416,0.013676
1343.7053,0.013543
1345.5690,0.013570
1347.4326,0.013622
1349.2963,0.013682
1351.1600,0.013666
1353.0236,0.013613
1354.8873,0.013598
1356.7510,0.013531
1358.6146,0.013403
1360.4783,0.013539
1362.3420,0.013894
1364.2056,0.013898
1366.0693,0.013656
1367.9330,0.013630
1369.7967,0.013612
1371.6603,0.013676
1373.5240,0.014020
1375.3877,0.014248
1377.2513,0.014131
1379.1150,0.014122
1380.9787,0.014132
1382.8423,0.014059
1384.7060,0.014158
1386.5697,0.014570
1388.4333,0.014779
1390.2970,0.014455
1392.1607,0.014440
1394.0244,0.014873
1395.8880,0.015247
1397.7517,0.015308
1399.6154,0.015415
1401.4790,0.015251
1403.3427,0.015242
1405.2064,0.015547
1407.0700,0.015449
1408.9337,0.015310
1410.7974,0.015307
1412.6610,0.015146
1414.5247,0.014802
1416.3884,0.014834
1418.2520,0.015425
1420.1157,0.015695
1421.9794,0.015102
1423.8431,0.014825
1425.7067,0.014610
1427.5704,0.014358
1429.4341,0.014500
1431.2977,0.014316
1433.1614,0.014039
1435.0251,0.014475
1436.8887,0.015421
1438.7524,0.015219
1440.6161,0.014726
1442.4797,0.014727
1444.3434,0.014706
1446.2071,0.014993
1448.0707,0.015357
1449.9344,0.015250
1451.7981,0.014742
1453.6618,0.014578
1455.5254,0.015276
1457.3891,0.016826
1459.2528,0.015963
1461.1164,0.014873
1462.9801,0.014646
1464.8438,0.014941
1466.7074,0.014514
1468.5711,0.013760
1470.4348,0.013660
1472.2984,0.014376
1474.1621,0.014546
1476.0258,0.013965
1477.8895,0.013450
1479.7531,0.013068
1481.6168,0.012892
1483.4805,0.012568
1485.3441,0.012303
1487.2078,0.012627
1489.0715,0.013294
1490.9351,0.013329
1492.7988,0.012653
1494.6625,0.012531
1496.5261,0.013298
1498.3898,0.013598
1500.2535,0.013084
1502.1171,0.012410
1503.9808,0.012436
1505.8445,0.014321
1507.7082,0.015919
1509.5718,0.014874
1511.4355,0.014267
1513.2992,0.014207
1515.1628,0.014336
1517.0265,0.014802
1518.8902,0.015076
1520.7538,0.015796
1522.6175,0.016453
1524.4812,0.016160
1526.3448,0.016414
1528.2085,0.016315
1530.0722,0.016157
1531.9359,0.016449
1533.7995,0.016890
1535.6632,0.016386
1537.5269,0.016188
1539.3905,0.018133
1541.2542,0.019485
1543.1179,0.019175
1544.9815,0.018760
1546.8452,0.018258
1548.7089,0.018017
1550.5725,0.018134
1552.4362,0.017634
1554.2999,0.017376
1556.1635,0.017710
1558.0272,0.020004
1559.8909,0.021718
1561.7546,0.019374
1563.6182,0.018276
1565.4819,0.018226
1567.3456,0.018383
1569.2092,0.019054
1571.0729,0.019008
1572.9366,0.018351
1574.8002,0.019034
1576.6639,0.020309
1578.5276,0.019898
1580.3912,0.019459
1582.2549,0.019707
1584.1186,0.019917
1585.9822,0.020117
1587.8459,0.020285
1589.7096,0.020574
1591.5733,0.020867
1593.4369,0.021252
1595.3006,0.021585
1597.1643,0.021848
1599.0279,0.022064
1600.8916,0.022376
1602.7553,0.022715
1604.6189,0.023112
1606.4826,0.023516
1608.3463,0.024112
1610.2099,0.024422
1612.0736,0.024448
1613.9373,0.024845
1615.8010,0.026430
1617.6646,0.027595
1619.5283,0.026998
1621.3920,0.027212
1623.2556,0.028552
1625.1193,0.029116
1626.9830,0.029127
1628.8466,0.029184
1630.7103,0.028626
1632.5740,0.028495
1634.4376,0.029822
1636.3013,0.031567
1638.1650,0.030601
1640.0286,0.029377
1641.8923,0.028706
1643.7560,0.028564
1645.6197,0.029278
1647.4833,0.029510
1649.3470,0.028285
1651.2107,0.028357
1653.0743,0.031339
1654.9380,0.030288
1656.8017,0.028044
1658.6653,0.027101
1660.5290,0.026617
1662.3927,0.026374
1664.2563,0.025572
1666.1200,0.024459
1667.9837,0.024137
1669.8474,0.024064
1671.7110,0.023089
1673.5747,0.022212
1675.4384,0.021765
1677.3020,0.020442
1679.1657,0.019040
1681.0294,0.018298
1682.8930,0.018185
1684.7567,0.018456
1686.6204,0.016828
1688.4840,0.015575
1690.3477,0.014491
1692.2114,0.013409
1694.0750,0.012704
1695.9387,0.012625
1697.8024,0.012184
1699.6661,0.012018
1701.5297,0.011754
1703.3934,0.010652
1705.2571,0.010426
1707.1207,0.009986
1708.9844,0.009280
1710.8481,0.008709
1712.7117,0.008339
1714.5754,0.008490
1716.4391,0.009071
1718.3027,0.009214
1720.1664,0.008475
1722.0301,0.007886
1723.8937,0.007677
1725.7574,0.007344
1727.6211,0.007116
1729.4848,0.006952
1731.3484,0.007095
1733.2121,0.007517
1735.0758,0.007859
1736.9394,0.007031
1738.8031,0.006930
1740.6668,0.006946
1742.5304,0.006686
1744.3941,0.006486
1746.2578,0.006324
1748.1214,0.006511
1749.9851,0.006771
1751.8488,0.006689
1753.7125,0.006330
1755.5761,0.006106
1757.4398,0.006263
1759.3035,0.006137
1761.1671,0.006203
1763.0308,0.006226
1764.8945,0.005897
1766.7581,0.005691
1768.6218,0.005850
1770.4855,0.005946
1772.3491,0.006480
1774.2128,0.006292
1776.0765,0.005824
1777.9401,0.005584
1779.8038,0.005825
1781.6675,0.006026
1783.5312,0.005836
1785.3948,0.005695
1787.2585,0.005414
1789.1222,0.005356
1790.9858,0.005724
1792.8495,0.006085
1794.7132,0.005768
1796.5768,0.005493
1798.4405,0.005546
1800.3042,0.005785
1802.1678,0.005791
1804.0315,0.005582
1805.8952,0.005391
1807.7589,0.005398
1809.6225,0.005461
1811.4862,0.005402
1813.3499,0.005172
1815.2135,0.004966
1817.0772,0.004991
1818.9409,0.005167
1820.8045,0.005249
1822.6682,0.005264
1824.5319,0.005420
1826.3955,0.005464
1828.2592,0.005428
1830.1229,0.005651
1831.9865,0.005378
1833.8502,0.005169
1835.7139,0.005176
1837.5776,0.005145
1839.4412,0.005000
1841.3049,0.004848
1843.1686,0.005192
1845.0322,0.005702
1846.8959,0.005408
1848.7596,0.005250
1850.6232,0.005235
1852.4869,0.005171
1854.3506,0.005122
1856.2142,0.005071
1858.0779,0.005074
1859.9416,0.005034
1861.8052,0.005003
1863.6689,0.004954
1865.5326,0.004869
1867.3963,0.005019
1869.2599,0.005315
1871.1236,0.005305
1872.9873,0.005355
1874.8509,0.005206
1876.7146,0.004960
1878.5783,0.005023
1880.4419,0.005073
1882.3056,0.005112
1884.1693,0.005033
1886.0329,0.004852
1887.8966,0.004916
1889.7603,0.005127
1891.6240,0.005188
1893.4876,0.005010
1895.3513,0.005018
1897.2150,0.005070
1899.0786,0.004976
1900.9423,0.004963
1902.8060,0.005109
1904.6696,0.004892
1906.5333,0.004728
1908.3970,0.004959
1910.2606,0.005247
1912.1243,0.005010
1913.9880,0.004838
1915.8516,0.004698
1917.7153,0.004680
1919.5790,0.004717
1921.4427,0.004865
1923.3063,0.005145
1925.1700,0.005120
1927.0337,0.004666
1928.8973,0.004344
1930.7610,0.004422
1932.6247,0.004475
1934.4883,0.004506
1936.3520,0.004432
1938.2157,0.004316
1940.0793,0.004203
1941.9430,0.004235
1943.8067,0.004321
1945.6704,0.004297
1947.5340,0.004247
1949.3977,0.004182
1951.2614,0.004363
1953.1250,0.004296
1954.9887,0.004091
1956.8524,0.004080
1958.7160,0.004159
1960.5797,0.003921
1962.4434,0.004278
1964.3070,0.004706
1966.1707,0.004546
1968.0344,0.004225
1969.8980,0.004338
1971.7617,0.004754
1973.6254,0.005068
1975.4891,0.005578
1977.3527,0.006961
1979.2164,0.007485
1981.0801,0.006828
1982.9437,0.006132
1984.8074,0.005880
1986.6711,0.005758
1988.5347,0.005885
1990.3984,0.005960
1992.2621,0.005890
1994.1257,0.005398
1995.9894,0.004969
1997.8531,0.004758
1999.7167,0.005103
2001.5804,0.004950
2003.4441,0.004142
2005.3078,0.003911
2007.1714,0.004581
2009.0351,0.005402
2010.8988,0.005810
2012.7624,0.005734
2014.6261,0.005913
2016.4898,0.005992
2018.3534,0.005648
2020.2171,0.005191
2022.0808,0.005550
2023.9444,0.005654
2025.8081,0.005447
2027.6718,0.005585
2029.5355,0.006115
2031.3991,0.006188
2033.2628,0.006259
2035.1265,0.006860
2036.9901,0.006949
2038.8538,0.006445
2040.7175,0.006503
2042.5811,0.006506
2044.4448,0.006616
2046.3085,0.006616
2048.1721,0.007080
2050.0358,0.007789
2051.8995,0.007490
2053.7631,0.006790
2055.6268,0.006750
2057.4905,0.006929
2059.3542,0.007004
2061.2178,0.006725
2063.0815,0.006429
2064.9452,0.006369
2066.8088,0.006547
2068.6725,0.006694
2070.5362,0.006817
2072.3998,0.006470
2074.2635,0.006120
2076.1272,0.006398
2077.9908,0.006901
2079.8545,0.006976
2081.7182,0.006855
2083.5819,0.006641
2085.4455,0.006574
2087.3092,0.006443
2089.1729,0.006096
2091.0365,0.005712
2092.9002,0.005509
2094.7639,0.005561
2096.6275,0.005997
2098.4912,0.006396
2100.3549,0.006486
2102.2185,0.006540
2104.0822,0.006620
2105.9459,0.006520
2107.8095,0.006635
2109.6732,0.006610
2111.5369,0.006350
2113.4006,0.006163
2115.2642,0.005897
2117.1279,0.005503
2118.9916,0.005510
2120.8552,0.005367
2122.7189,0.004942
2124.5826,0.004609
2126.4462,0.004648
2128.3099,0.004375
2130.1736,0.003776
2132.0372,0.003511
2133.9009,0.003487
2135.7646,0.004040
2137.6282,0.004807
2139.4919,0.004673
2141.3556,0.004501
2143.2193,0.004477
2145.0829,0.004482
2146.9466,0.004617
2148.8103,0.004782
2150.6739,0.004269
2152.5376,0.003452
2154.4013,0.002919
2156.2649,0.003256
2158.1286,0.005250
2159.9923,0.007755
2161.8559,0.008190
2163.7196,0.007782
2165.5833,0.007374
2167.4470,0.007015
2169.3106,0.006684
2171.1743,0.006460
2173.0380,0.006173
2174.9016,0.006266
2176.7653,0.006687
2178.6290,0.006535
2180.4926,0.005895
2182.3563,0.006118
2184.2200,0.006959
2186.0836,0.007079
2187.9473,0.006728
2189.8110,0.006743
2191.6746,0.006851
2193.5383,0.007057
2195.4020,0.006672
2197.2657,0.006161
2199.1293,0.006239
2200.9930,0.006645
2202.8567,0.006698
2204.7203,0.006452
2206.5840,0.006371
2208.4477,0.006411
2210.3113,0.006405
2212.1750,0.006113
2214.0387,0.005755
2215.9023,0.006219
2217.7660,0.006608
2219.6297,0.006328
2221.4934,0.005929
2223.3570,0.006262
2225.2207,0.006631
2227.0844,0.006728
2228.9480,0.006823
2230.8117,0.006813
2232.6754,0.006703
2234.5390,0.006617
2236.4027,0.006374
2238.2664,0.006185
2240.1300,0.006168
2241.9937,0.006397
2243.8574,0.006334
2245.7210,0.006129
2247.5847,0.006099
2249.4484,0.006178
2251.3121,0.006248
2253.1757,0.006396
2255.0394,0.006459
2256.9031,0.006440
2258.7667,0.006276
2260.6304,0.006219
2262.4941,0.006319
2264.3577,0.006321
2266.2214,0.006458
2268.0851,0.006833
2269.9487,0.006895
2271.8124,0.006715
2273.6761,0.006633
2275.5397,0.006698
2277.4034,0.006712
2279.2671,0.006874
2281.1308,0.007059
2282.9944,0.007225
2284.8581,0.007249
2286.7218,0.007164
2288.5854,0.007136
2290.4491,0.006990
2292.3128,0.006666
2294.1764,0.006481
2296.0401,0.006267
2297.9038,0.006072
2299.7674,0.006141
2301.6311,0.006291
2303.4948,0.006276
2305.3585,0.006263
2307.2221,0.006322
2309.0858,0.006437
2310.9495,0.006384
2312.8131,0.006271
2314.6768,0.006259
2316.5405,0.006447
2318.4041,0.006788
2320.2678,0.007251
2322.1315,0.007658
2323.9951,0.007587
2325.8588,0.006674
2327.7225,0.005872
2329.5861,0.005776
2331.4498,0.005841
2333.3135,0.005611
2335.1772,0.005540
2337.0408,0.005805
2338.9045,0.006171
2340.7682,0.006369
2342.6318,0.006600
2344.4955,0.006556
2346.3592,0.006016
2348.2228,0.005263
2350.0865,0.004716
2351.9502,0.004520
2353.8138,0.004956
2355.6775,0.005604
2357.5412,0.006118
2359.4049,0.005987
2361.2685,0.005956
2363.1322,0.006447
2364.9959,0.006424
2366.8595,0.006062
2368.7232,0.006138
2370.5869,0.006162
2372.4505,0.005996
2374.3142,0.005772
2376.1779,0.005505
2378.0415,0.005342
2379.9052,0.005231
2381.7689,0.005045
2383.6325,0.004848
2385.4962,0.004533
2387.3599,0.004388
2389.2236,0.004492
2391.0872,0.004508
2392.9509,0.004449
2394.8146,0.004433
2396.6782,0.004423
2398.5419,0.004446
2400.4056,0.004506
2402.2692,0.004630
2404.1329,0.004675
2405.9966,0.004604
2407.8602,0.004594
2409.7239,0.004679
2411.5876,0.004666
2413.4512,0.004687
2415.3149,0.004732
2417.1786,0.004760
2419.0423,0.004863
2420.9059,0.004985
2422.7696,0.004873
2424.6333,0.004678
2426.4969,0.004639
2428.3606,0.004746
2430.2243,0.004802
2432.0879,0.004782
2433.9516,0.004797
2435.8153,0.004986
2437.6789,0.005074
2439.5426,0.004921
2441.4063,0.004857
2443.2700,0.004998
2445.1336,0.005142
2446.9973,0.005179
2448.8610,0.005073
2450.7246,0.005079
2452.5883,0.005178
2454.4520,0.005242
2456.3156,0.005292
2458.1793,0.005204
2460.0430,0.004946
2461.9066,0.004803
2463.7703,0.004838
2465.6340,0.004847
2467.4976,0.004802
2469.3613,0.004833
2471.2250,0.004722
2473.0887,0.004711
2474.9523,0.004816
2476.8160,0.004812
2478.6797,0.004852
2480.5433,0.004973
2482.4070,0.004864
2484.2707,0.004789
2486.1343,0.004868
2487.9980,0.004899
2489.8617,0.004828
2491.7253,0.004737
2493.5890,0.004788
2495.4527,0.004891
2497.3164,0.004820
2499.1800,0.004714
2501.0437,0.004722
2502.9074,0.004785
2504.7710,0.004748
2506.6347,0.004715
2508.4984,0.004779
2510.3620,0.004872
2512.2257,0.004934
2514.0894,0.004929
2515.9530,0.004912
2517.8167,0.005021
2519.6804,0.004956
2521.5440,0.004768
2523.4077,0.004690
2525.2714,0.004708
2527.1351,0.004682
2528.9987,0.004822
2530.8624,0.004974
2532.7261,0.004894
2534.5897,0.004760
2536.4534,0.004786
2538.3171,0.004850
2540.1807,0.004949
2542.0444,0.004976
2543.9081,0.004878
2545.7717,0.004814
2547.6354,0.004869
2549.4991,0.004888
2551.3627,0.004856
2553.2264,0.004761
2555.0901,0.004723
2556.9538,0.004784
2558.8174,0.004963
2560.6811,0.005167
2562.5448,0.005203
2564.4084,0.004994
2566.2721,0.004898
2568.1358,0.004958
2569.9994,0.004993
2571.8631,0.004947
2573.7268,0.004908
2575.5904,0.004980
2577.4541,0.005052
2579.3178,0.005024
2581.1815,0.005028
2583.0451,0.005222
2584.9088,0.005284
2586.7725,0.005213
2588.6361,0.005249
2590.4998,0.005183
2592.3635,0.005159
2594.2271,0.005223
2596.0908,0.005158
2597.9545,0.005198
2599.8181,0.005286
2601.6818,0.005189
2603.5455,0.005151
2605.4091,0.005245
2607.2728,0.005320
2609.1365,0.005354
2611.0002,0.005393
2612.8638,0.005416
2614.7275,0.005443
2616.5912,0.005485
2618.4548,0.005513
2620.3185,0.005520
2622.1822,0.005509
2624.0458,0.005471
2625.9095,0.005517
