Wavenumber,Intensity
650.4205,0.002114
652.2841,0.001307
654.1478,0.001071
656.0115,0.001288
657.8751,0.002347
659.7388,0.003070
661.6025,0.002270
663.4661,0.001354
665.3298,0.001411
667.1935,0.003720
669.0571,0.004295
670.9208,0.002040
672.7845,0.002090
674.6481,0.002002
676.5118,0.001636
678.3755,0.001534
680.2392,0.001610
682.1028,0.001167
683.9665,0.000959
685.8302,0.000749
687.6938,0.001030
689.5575,0.001302
691.4212,0.001213
693.2848,0.000893
695.1485,0.000898
697.0122,0.000681
698.8758,0.000594
700.7395,0.000774
702.6032,0.000665
704.4669,0.000493
706.3305,0.000762
708.1942,0.000712
710.0579,0.000408
711.9215,0.000512
713.7852,0.000832
715.6489,0.000933
717.5125,0.000799
719.3762,0.000777
721.2399,0.000538
723.1035,0.000254
724.9672,0.000528
726.8309,0.000495
728.6945,0.000245
730.5582,0.000158
732.4219,0.000261
734.2856,0.000392
736.1492,0.000362
738.0129,0.000205
739.8766,0.000195
741.7402,0.000265
743.6039,0.000320
745.4676,0.000400
747.3312,0.000397
749.1949,0.000302
751.0586,0.000305
752.9222,0.000191
754.7859,0.000156
756.6496,0.000245
758.5132,0.000222
760.3769,0.000192
762.2406,0.000245
764.1043,0.000201
765.9679,0.000275
767.8316,0.000329
769.6953,0.000269
771.5589,0.000293
773.4226,0.000352
775.2863,0.000405
777.1499,0.000493
779.0136,0.000436
780.8773,0.000488
782.7409,0.000668
784.6046,0.000854
786.4683,0.000963
788.3320,0.001016
790.1956,0.001057
792.0593,0.001178
793.9230,0.001284
795.7866,0.001419
797.6503,0.001231
799.5140,0.001116
801.3776,0.001337
803.2413,0.001334
805.1050,0.001149
806.9686,0.001176
808.8323,0.001245
810.6960,0.001342
812.5596,0.001265
814.4233,0.000985
816.2870,0.000872
818.1507,0.000887
820.0143,0.000897
821.8780,0.001032
823.7417,0.000949
825.6053,0.000740
827.4690,0.000612
829.3327,0.000648
831.1963,0.000686
833.0600,0.000587
834.9237,0.000531
836.7873,0.000648
838.6510,0.000611
840.5147,0.000469
842.3784,0.000430
844.2420,0.000462
846.1057,0.000476
847.9694,0.000466
849.8330,0.000397
851.6967,0.000412
853.5604,0.000438
855.4240,0.000422
857.2877,0.000259
859.1514,0.000086
861.0150,0.000069
862.8787,0.000172
864.7424,0.000224
866.6060,0.000189
868.4697,0.000093
870.3334,0.000161
872.1971,0.000210
874.0607,0.000264
875.9244,0.000301
877.7881,0.000354
879.6517,0.000368
881.5154,0.000370
883.3791,0.000422
885.2427,0.000370
887.1064,0.000285
888.9701,0.000304
890.8337,0.000322
892.6974,0.000325
894.5611,0.000299
896.4247,0.000280
898.2884,0.000265
900.1521,0.000214
902.0158,0.000174
903.8794,0.000194
905.7431,0.000198
907.6068,0.000139
909.4704,0.000061
911.3341,0.000050
913.1978,-0.000006
915.0614,-0.000002
916.9251,0.000033
918.7888,-0.000008
920.6524,-0.000032
922.5161,0.000049
924.3798,0.000050
926.2435,-0.000009
928.1071,-0.000071
929.9708,-0.000059
931.8345,-0.000077
933.6981,-0.000087
935.5618,-0.000079
937.4255,-0.000070
939.2891,-0.000030
941.1528,0.000000
943.0165,-0.000014
944.8801,-0.000030
946.7438,-0.000038
948.6075,0.000026
950.4711,0.000091
952.3348,0.000111
954.1985,0.000076
956.0622,0.000141
957.9258,0.000202
959.7895,0.000235
961.6532,0.000278
963.5168,0.000301
965.3805,0.000325
967.2442,0.000385
969.1078,0.000413
970.9715,0.000487
972.8352,0.000592
974.6988,0.000629
976.5625,0.000670
978.4262,0.000802
980.2899,0.000888
982.1535,0.000930
984.0172,0.000961
985.8809,0.000992
987.7445,0.001022
989.6082,0.001114
991.4719,0.001243
993.3355,0.001355
995.1992,0.001406
997.0629,0.001463
998.9265,0.001556
1000.7902,0.001661
1002.6539,0.001798
1004.5175,0.001962
1006.3812,0.002075
1008.2449,0.002206
1010.1086,0.002368
1011.9722,0.002584
1013.8359,0.002799
1015.6996,0.002889
1017.5632,0.002900
1019.4269,0.002996
1021.2906,0.003085
1023.1542,0.003161
1025.0179,0.003234
1026.8816,0.003299
1028.7452,0.003296
1030.6089,0.003271
1032.4726,0.003280
1034.3362,0.003352
1036.1999,0.003420
1038.0636,0.003433
1039.9273,0.003429
1041.7909,0.003503
1043.6546,0.003557
1045.5183,0.003592
1047.3819,0.003636
1049.2456,0.003645
1051.1093,0.003604
1052.9729,0.003604
1054.8366,0.003609
1056.7003,0.003657
1058.5639,0.003634
1060.4276,0.003536
1062.2913,0.003502
1064.1550,0.003564
1066.0186,0.003623
1067.8823,0.003569
1069.7460,0.003464
1071.6096,0.003494
1073.4733,0.003586
1075.3370,0.003629
1077.2006,0.003576
1079.0643,0.003501
1080.9280,0.003459
1082.7916,0.003436
1084.6553,0.003395
1086.5190,0.003364
1088.3826,0.003289
1090.2463,0.003209
1092.1100,0.003134
1093.9737,0.003119
1095.8373,0.003091
1097.7010,0.003066
1099.5647,0.003052
1101.4283,0.003035
1103.2920,0.002955
1105.1557,0.002888
1107.0193,0.002835
1108.8830,0.002777
1110.7467,0.002721
1112.6103,0.002624
1114.4740,0.002470
1116.3377,0.002362
1118.2014,0.002250
1120.0650,0.002151
1121.9287,0.002051
1123.7924,0.001945
1125.6560,0.001844
1127.5197,0.001759
1129.3834,0.001662
1131.2470,0.001594
1133.1107,0.001520
1134.9744,0.001436
1136.8380,0.001377
1138.7017,0.001355
1140.5654,0.001320
1142.4290,0.001326
1144.2927,0.001319
1146.1564,0.001293
1148.0201,0.001270
1149.8837,0.001251
1151.7474,0.001227
1153.6111,0.001224
1155.4747,0.001215
1157.3384,0.001243
1159.2021,0.001272
1161.0657,0.001243
1162.9294,0.001165
1164.7931,0.001119
1166.6567,0.001074
1168.5204,0.001054
1170.3841,0.001009
1172.2477,0.000946
1174.1114,0.000893
1175.9751,0.000826
1177.8388,0.000762
1179.7024,0.000759
1181.5661,0.000745
1183.4298,0.000731
1185.2934,0.000730
1187.1571,0.000744
1189.0208,0.000742
1190.8844,0.000741
1192.7481,0.000757
1194.6118,0.000806
1196.4754,0.000836
1198.3391,0.000888
1200.2028,0.000919
1202.0665,0.000945
1203.9301,0.000957
1205.7938,0.000994
1207.6575,0.000972
1209.5211,0.000949
1211.3848,0.000967
1213.2485,0.000985
1215.1121,0.001023
1216.9758,0.001108
1218.8395,0.001156
1220.7031,0.001173
1222.5668,0.001189
1224.4305,0.001267
1226.2941,0.001321
1228.1578,0.001353
1230.0215,0.001355
1231.8852,0.001363
1233.7488,0.001367
1235.6125,0.001375
1237.4762,0.001403
1239.3398,0.001471
1241.2035,0.001489
1243.0672,0.001486
1244.9308,0.001502
1246.7945,0.001533
1248.6582,0.001545
1250.5218,0.001571
1252.3855,0.001581
1254.2492,0.001644
1256.1129,0.001795
1257.9765,0.001962
1259.8402,0.002003
1261.7039,0.001933
1263.5675,0.001858
1265.4312,0.001752
1267.2949,0.001598
1269.1585,0.001494
1271.0222,0.001410
1272.8859,0.001315
1274.7495,0.001227
1276.6132,0.001201
1278.4769,0.001201
1280.3405,0.001173
1282.2042,0.001125
1284.0679,0.001154
1285.9316,0.001213
1287.7952,0.001293
1289.6589,0.001272
1291.5226,0.001237
1293.3862,0.001230
1295.2499,0.001285
1297.1136,0.001300
1298.9772,0.001283
1300.8409,0.001288
1302.7046,0.001356
1304.5682,0.001377
1306.4319,0.001440
1308.2956,0.001518
1310.1592,0.001593
1312.0229,0.001720
1313.8866,0.001765
1315.7503,0.001758
1317.6139,0.001845
1319.4776,0.001770
1321.3413,0.001572
1323.2049,0.001462
1325.0686,0.001440
1326.9323,0.001465
1328.7959,0.001484
1330.6596,0.001480
1332.5233,0.001575
1334.3869,0.001748
1336.2506,0.002038
1338.1143,0.002343
1339.9780,0.002332
1341.8416,0.001826
1343.7053,0.001653
1345.5690,0.001619
1347.4326,0.001656
1349.2963,0.001642
1351.1600,0.001644
1353.0236,0.001686
1354.8873,0.001774
1356.7510,0.001762
1358.6146,0.001844
1360.4783,0.002189
1362.3420,0.002546
1364.2056,0.002111
1366.0693,0.001855
1367.9330,0.001962
1369.7967,0.002013
1371.6603,0.002235
1373.5240,0.002622
1375.3877,0.002327
1377.2513,0.002161
1379.1150,0.002127
1380.9787,0.002014
1382.8423,0.002078
1384.7060,0.002329
1386.5697,0.002720
1388.4333,0.002385
1390.2970,0.002309
1392.1607,0.002616
1394.0244,0.003185
1395.8880,0.003191
1397.7517,0.003240
1399.6154,0.002961
1401.4790,0.002486
1403.3427,0.002782
1405.2064,0.002723
1407.0700,0.002530
1408.9337,0.002491
1410.7974,0.002529
1412.6610,0.002423
1414.5247,0.002624
1416.3884,0.003058
1418.2520,0.003597
1420.1157,0.002768
1421.9794,0.002401
1423.8431,0.002448
1425.7067,0.002001
1427.5704,0.002122
1429.4341,0.002226
1431.2977,0.002192
1433.1614,0.002257
1435.0251,0.002653
1436.8887,0.002438
1438.7524,0.001641
1440.6161,0.001698
1442.4797,0.001519
1444.3434,0.001687
1446.2071,0.001955
1448.0707,0.002163
1449.9344,0.001897
1451.7981,0.002192
1453.6618,0.002510
1455.5254,0.003606
1457.3891,0.003067
1459.2528,0.002086
1461.1164,0.001732
1462.9801,0.001848
1464.8438,0.001821
1466.7074,0.001457
1468.5711,0.001545
1470.4348,0.002091
1472.2984,0.002692
1474.1621,0.002067
1476.0258,0.001813
1477.8895,0.001134
1479.7531,0.001059
1481.6168,0.001036
1483.4805,0.001029
1485.3441,0.001541
1487.2078,0.002109
1489.0715,0.002551
1490.9351,0.001950
1492.7988,0.001343
1494.6625,0.001838
1496.5261,0.002075
1498.3898,0.001975
1500.2535,0.001836
1502.1171,0.001890
1503.9808,0.002755
1505.8445,0.004323
1507.7082,0.004188
1509.5718,0.003386
1511.4355,0.003031
1513.2992,0.002688
1515.1628,0.003278
1517.0265,0.003686
1518.8902,0.003704
1520.7538,0.004409
1522.6175,0.003622
1524.4812,0.003621
1526.3448,0.003402
1528.2085,0.003203
1530.0722,0.003122
1531.9359,0.003470
1533.7995,0.003729
1535.6632,0.003451
1537.5269,0.004460
1539.3905,0.005250
1541.2542,0.005287
1543.1179,0.004668
1544.9815,0.004087
1546.8452,0.003333
1548.7089,0.003697
1550.5725,0.003578
1552.4362,0.003808
1554.2999,0.004206
1556.1635,0.004559
1558.0272,0.005667
1559.8909,0.004148
1561.7546,0.003186
1563.6182,0.003238
1565.4819,0.002931
1567.3456,0.003119
1569.2092,0.003420
1571.0729,0.002738
1572.9366,0.002832
1574.8002,0.003183
1576.6639,0.002919
1578.5276,0.002383
1580.3912,0.002420
1582.2549,0.002157
1584.1186,0.002204
1585.9822,0.002092
1587.8459,0.002136
1589.7096,0.002131
1591.5733,0.002211
1593.4369,0.002247
1595.3006,0.002270
1597.1643,0.002143
1599.0279,0.002142
1600.8916,0.002214
1602.7553,0.002260
1604.6189,0.002199
1606.4826,0.002327
1608.3463,0.002436
1610.2099,0.002357
1612.0736,0.002323
1613.9373,0.002599
1615.8010,0.003218
1617.6646,0.002782
1619.5283,0.002780
1621.3920,0.003158
1623.2556,0.003351
1625.1193,0.003094
1626.9830,0.003244
1628.8466,0.002972
1630.7103,0.003174
1632.5740,0.003558
1634.4376,0.004378
1636.3013,0.004266
1638.1650,0.003899
1640.0286,0.003747
1641.8923,0.003678
1643.7560,0.004105
1645.6197,0.004852
1647.4833,0.005098
1649.3470,0.004735
1651.2107,0.005185
1653.0743,0.005278
1654.9380,0.004045
1656.8017,0.003840
1658.6653,0.003366
1660.5290,0.003445
1662.3927,0.003497
1664.2563,0.003020
1666.1200,0.003159
1667.9837,0.003544
1669.8474,0.003535
1671.7110,0.003230
1673.5747,0.003114
1675.4384,0.002707
1677.3020,0.002103
1679.1657,0.002637
1681.0294,0.002620
1682.8930,0.003724
1684.7567,0.002804
1686.6204,0.001847
1688.4840,0.001746
1690.3477,0.001228
1692.2114,0.001072
1694.0750,0.001584
1695.9387,0.001839
1697.8024,0.001738
1699.6661,0.002294
1701.5297,0.000325
1703.3934,0.000870
1705.2571,0.000712
1707.1207,0.000125
1708.9844,0.000067
1710.8481,0.000051
1712.7117,0.000510
1714.5754,0.001245
1716.4391,0.001547
1718.3027,0.000747
1720.1664,-0.000301
1722.0301,-0.000108
1723.8937,-0.000415
1725.7574,-0.000365
1727.6211,-0.000211
1729.4848,0.000339
1731.3484,0.000738
1733.2121,0.001471
1735.0758,0.000231
1736.9394,0.000219
1738.8031,0.000519
1740.6668,0.000108
1742.5304,0.000414
1744.3941,0.000498
1746.2578,0.000754
1748.1214,0.000941
1749.9851,0.000686
1751.8488,0.000115
1753.7125,-0.000357
1755.5761,-0.000008
1757.4398,-0.000209
1759.3035,-0.000122
1761.1671,-0.000114
1763.0308,-0.000452
1764.8945,-0.000510
1766.7581,-0.000203
1768.6218,-0.000005
1770.4855,0.000504
1772.3491,0.000314
1774.2128,-0.000211
1776.0765,-0.000238
1777.9401,-0.000513
1779.8038,-0.000245
1781.6675,-0.000410
1783.5312,-0.000278
1785.3948,-0.000626
1787.2585,-0.000602
1789.1222,-0.000219
1790.9858,0.000256
1792.8495,-0.000036
1794.7132,-0.000137
1796.5768,-0.000115
1798.4405,-0.000145
1800.3042,-0.000114
1802.1678,-0.000364
1804.0315,-0.000615
1805.8952,-0.000638
1807.7589,-0.000475
1809.6225,-0.000337
1811.4862,-0.000557
1813.3499,-0.000786
1815.2135,-0.000810
1817.0772,-0.000741
1818.9409,-0.000641
1820.8045,-0.000633
1822.6682,-0.000493
1824.5319,-0.000093
1826.3955,-0.000195
1828.2592,0.000068
1830.1229,-0.000164
1831.9865,-0.000567
1833.8502,-0.000647
1835.7139,-0.000696
1837.5776,-0.000573
1839.4412,-0.000628
1841.3049,-0.000415
1843.1686,-0.000017
1845.0322,-0.000254
1846.8959,-0.000321
1848.7596,-0.000438
1850.6232,-0.000749
1852.4869,-0.000825
1854.3506,-0.000891
1856.2142,-0.000645
1858.0779,-0.000642
1859.9416,-0.000593
1861.8052,-0.000754
1863.6689,-0.000622
1865.5326,-0.000364
1867.3963,-0.000031
1869.2599,-0.000191
1871.1236,-0.000361
1872.9873,-0.000625
1874.8509,-0.000807
1876.7146,-0.000767
1878.5783,-0.000781
1880.4419,-0.000930
1882.3056,-0.000861
1884.1693,-0.000772
1886.0329,-0.000672
1887.8966,-0.000431
1889.7603,-0.000320
1891.6240,-0.000487
1893.4876,-0.000419
1895.3513,-0.000496
1897.2150,-0.000512
1899.0786,-0.000750
1900.9423,-0.000734
1902.8060,-0.000711
1904.6696,-0.000525
1906.5333,-0.000401
1908.3970,-0.000407
1910.2606,-0.000607
1912.1243,-0.000601
1913.9880,-0.000703
1915.8516,-0.000487
1917.7153,-0.000307
1919.5790,-0.000451
1921.4427,-0.000274
1923.3063,-0.000109
1925.1700,-0.000278
1927.0337,-0.000600
1928.8973,-0.000717
1930.7610,-0.000601
1932.6247,-0.000784
1934.4883,-0.000761
1936.3520,-0.000753
1938.2157,-0.000678
1940.0793,-0.000520
1941.9430,-0.000263
1943.8067,-0.000566
1945.6704,-0.000526
1947.5340,-0.000561
1949.3977,-0.000410
1951.2614,-0.000471
1953.1250,-0.000333
1954.9887,-0.000334
1956.8524,-0.000399
1958.7160,-0.000941
1960.5797,-0.000929
1962.4434,-0.000563
1964.3070,-0.000133
1966.1707,-0.000265
1968.0344,-0.000506
1969.8980,-0.000617
1971.7617,-0.000633
1973.6254,-0.000887
1975.4891,-0.000901
1977.3527,-0.000435
1979.2164,0.000345
1981.0801,0.000072
1982.9437,-0.000160
1984.8074,-0.000101
1986.6711,0.000275
1988.5347,0.000168
1990.3984,0.000145
1992.2621,-0.000171
1994.1257,-0.000436
1995.9894,-0.000386
1997.8531,-0.000285
1999.7167,-0.000740
2001.5804,-0.000666
2003.4441,-0.000591
2005.3078,-0.001028
2007.1714,-0.001197
2009.0351,-0.000354
2010.8988,-0.000654
2012.7624,-0.001370
2014.6261,-0.001403
2016.4898,-0.001513
2018.3534,-0.001627
2020.2171,-0.000734
2022.0808,-0.000770
2023.9444,-0.000976
2025.8081,-0.000921
2027.6718,-0.000693
2029.5355,-0.000574
2031.3991,-0.000520
2033.2628,-0.000743
2035.1265,-0.000613
2036.9901,-0.000425
2038.8538,-0.000336
2040.7175,-0.000512
2042.5811,-0.000359
2044.4448,0.000005
2046.3085,0.000083
2048.1721,-0.000369
2050.0358,-0.000434
2051.8995,-0.000285
2053.7631,-0.000352
2055.6268,-0.000427
2057.4905,-0.000360
2059.3542,-0.000689
2061.2178,-0.000627
2063.0815,-0.000202
2064.9452,-0.000191
2066.8088,-0.000721
2068.6725,-0.000612
2070.5362,-0.000342
2072.3998,-0.000250
2074.2635,-0.000273
2076.1272,-0.000381
2077.9908,-0.000444
2079.8545,-0.000481
2081.7182,-0.000591
2083.5819,-0.000384
2085.4455,-0.000373
2087.3092,-0.000484
2089.1729,-0.000529
2091.0365,-0.000534
2092.9002,-0.000574
2094.7639,-0.000729
2096.6275,-0.000829
2098.4912,-0.000869
2100.3549,-0.000828
2102.2185,-0.000460
2104.0822,-0.000392
2105.9459,-0.000226
2107.8095,-0.000038
2109.6732,-0.000167
2111.5369,-0.000325
2113.4006,-0.000461
2115.2642,-0.000745
2117.1279,-0.000818
2118.9916,-0.000737
2120.8552,-0.000751
2122.7189,-0.000863
2124.5826,-0.000749
2126.4462,-0.000880
2128.3099,-0.001231
2130.1736,-0.001369
2132.0372,-0.001305
2133.9009,-0.001287
2135.7646,-0.001437
2137.6282,-0.001411
2139.4919,-0.001003
2141.3556,-0.001216
2143.2193,-0.001072
2145.0829,-0.000850
2146.9466,-0.001443
2148.8103,-0.001435
2150.6739,-0.000758
2152.5376,-0.000628
2154.4013,-0.001107
2156.2649,-0.001583
2158.1286,-0.001089
2159.9923,0.000296
2161.8559,0.000739
2163.7196,0.000457
2165.5833,0.000562
2167.4470,0.000715
2169.3106,0.000527
2171.1743,-0.000074
2173.0380,-0.000255
2174.9016,0.000027
2176.7653,0.000125
2178.6290,-0.000207
2180.4926,-0.000219
2182.3563,-0.000121
2184.2200,-0.000095
2186.0836,-0.000198
2187.9473,0.000262
2189.8110,0.000467
2191.6746,0.000048
2193.5383,-0.000580
2195.4020,-0.000297
2197.2657,-0.000032
2199.1293,-0.000189
2200.9930,-0.000271
2202.8567,-0.000248
2204.7203,-0.000376
2206.5840,-0.000379
2208.4477,-0.000006
2210.3113,0.000312
2212.1750,-0.000043
2214.0387,-0.000321
2215.9023,-0.000315
2217.7660,-0.000036
2219.6297,-0.000075
2221.4934,-0.000296
2223.3570,-0.000279
2225.2207,-0.000252
2227.0844,-0.000288
2228.9480,-0.000019
2230.8117,-0.000020
2232.6754,-0.000099
2234.5390,-0.000245
2236.4027,-0.000228
2238.2664,-0.000186
2240.1300,-0.000090
2241.9937,-0.000174
2243.8574,-0.000300
2245.7210,-0.000305
2247.5847,-0.000241
2249.4484,-0.000277
2251.3121,-0.000198
2253.1757,-0.000244
2255.0394,-0.000371
2256.9031,-0.000309
2258.7667,-0.000111
2260.6304,0.000022
2262.4941,0.000218
2264.3577,0.000162
2266.2214,0.000160
2268.0851,0.000251
2269.9487,0.000320
2271.8124,0.000364
2273.6761,0.000215
2275.5397,-0.000054
2277.4034,-0.000132
2279.2671,0.000082
2281.1308,0.000248
2282.9944,0.000298
2284.8581,0.000367
2286.7218,0.000426
2288.5854,0.000495
2290.4491,0.000405
2292.3128,0.000398
2294.1764,0.000571
2296.0401,0.000864
2297.9038,0.001003
2299.7674,0.001039
2301.6311,0.001184
2303.4948,0.001517
2305.3585,0.001841
2307.2221,0.002207
2309.0858,0.002600
2310.9495,0.002961
2312.8131,0.003257
2314.6768,0.003348
2316.5405,0.003652
2318.4041,0.004061
2320.2678,0.004711
2322.1315,0.005376
2323.9951,0.005650
2325.8588,0.005543
2327.7225,0.005239
2329.5861,0.005420
2331.4498,0.005441
2333.3135,0.005421
2335.1772,0.005491
2337.0408,0.005477
2338.9045,0.005735
2340.7682,0.005844
2342.6318,0.005674
2344.4955,0.005451
2346.3592,0.004763
2348.2228,0.004355
2350.0865,0.004663
2351.9502,0.005488
2353.8138,0.006626
2355.6775,0.007217
2357.5412,0.007999
2359.4049,0.008359
2361.2685,0.008416
2363.1322,0.007940
2364.9959,0.007350
2366.8595,0.006587
2368.7232,0.005778
2370.5869,0.005231
2372.4505,0.004402
2374.3142,0.003391
2376.1779,0.002514
2378.0415,0.001908
2379.9052,0.001277
2381.7689,0.000558
2383.6325,-0.000015
2385.4962,-0.000362
2387.3599,-0.000680
2389.2236,-0.000796
2391.0872,-0.000792
2392.9509,-0.000903
2394.8146,-0.000976
2396.6782,-0.000884
2398.5419,-0.000796
2400.4056,-0.000807
2402.2692,-0.000841
2404.1329,-0.000712
2405.9966,-0.000717
2407.8602,-0.000715
2409.7239,-0.000670
2411.5876,-0.000684
2413.4512,-0.000716
2415.3149,-0.000690
2417.1786,-0.000669
2419.0423,-0.000571
2420.9059,-0.000494
2422.7696,-0.000584
2424.6333,-0.000607
2426.4969,-0.000591
2428.3606,-0.000660
2430.2243,-0.000559
2432.0879,-0.000525
2433.9516,-0.000585
2435.8153,-0.000587
2437.6789,-0.000591
2439.5426,-0.000573
2441.4063,-0.000531
2443.2700,-0.000479
2445.1336,-0.000475
2446.9973,-0.000479
2448.8610,-0.000414
2450.7246,-0.000477
2452.5883,-0.000588
2454.4520,-0.000575
2456.3156,-0.000567
2458.1793,-0.000591
2460.0430,-0.000565
2461.9066,-0.000586
2463.7703,-0.000496
2465.6340,-0.000514
2467.4976,-0.000562
2469.3613,-0.000490
2471.2250,-0.000558
2473.0887,-0.000648
2474.9523,-0.000683
2476.8160,-0.000666
2478.6797,-0.000667
2480.5433,-0.000593
2482.4070,-0.000475
2484.2707,-0.000448
2486.1343,-0.000456
2487.9980,-0.000540
2489.8617,-0.000516
2491.7253,-0.000310
2493.5890,-0.000446
2495.4527,-0.000680
2497.3164,-0.000449
2499.1800,-0.000315
2501.0437,-0.000407
2502.9074,-0.000495
2504.7710,-0.000462
2506.6347,-0.000415
2508.4984,-0.000308
2510.3620,-0.000301
2512.2257,-0.000326
2514.0894,-0.000311
2515.9530,-0.000358
2517.8167,-0.000337
2519.6804,-0.000334
2521.5440,-0.000526
2523.4077,-0.000535
2525.2714,-0.000516
2527.1351,-0.000544
2528.9987,-0.000542
2530.8624,-0.000516
2532.7261,-0.000411
2534.5897,-0.000351
2536.4534,-0.000459
2538.3171,-0.000572
2540.1807,-0.000531
2542.0444,-0.000436
2543.9081,-0.000405
2545.7717,-0.000439
2547.6354,-0.000507
2549.4991,-0.000439
2551.3627,-0.000417
2553.2264,-0.000446
2555.0901,-0.000399
2556.9538,-0.000450
2558.8174,-0.000511
2560.6811,-0.000463
2562.5448,-0.000496
2564.4084,-0.000471
2566.2721,-0.000427
2568.1358,-0.000412
2569.9994,-0.000466
2571.8631,-0.000489
2573.7268,-0.000360
2575.5904,-0.000301
2577.4541,-0.000393
2579.3178,-0.000448
2581.1815,-0.000452
2583.0451,-0.000484
2584.9088,-0.000583
2586.7725,-0.000588
2588.6361,-0.000493
