Wavenumber,Intensity
650.4205,-0.010489
652.2841,-0.010596
654.1478,-0.010834
656.0115,-0.010658
657.8751,-0.010356
659.7388,-0.010165
661.6025,-0.010458
663.4661,-0.010792
665.3298,-0.009740
667.1935,-0.008452
669.0571,-0.010951
670.9208,-0.011332
672.7845,-0.010911
674.6481,-0.010319
676.5118,-0.009564
678.3755,-0.010349
680.2392,-0.010904
682.1028,-0.010578
683.9665,-0.010973
685.8302,-0.011594
687.6938,-0.011403
689.5575,-0.010976
691.4212,-0.011229
693.2848,-0.011587
695.1485,-0.011311
697.0122,-0.010995
698.8758,-0.011253
700.7395,-0.011189
702.6032,-0.010859
704.4669,-0.011121
706.3305,-0.011245
708.1942,-0.011353
710.0579,-0.011516
711.9215,-0.011470
713.7852,-0.011450
715.6489,-0.011433
717.5125,-0.011471
719.3762,-0.011550
721.2399,-0.011470
723.1035,-0.011200
724.9672,-0.011038
726.8309,-0.011065
728.6945,-0.011179
730.5582,-0.011516
732.4219,-0.011543
734.2856,-0.011099
736.1492,-0.010853
738.0129,-0.010892
739.8766,-0.010945
741.7402,-0.011126
743.6039,-0.010965
745.4676,-0.010670
747.3312,-0.010801
749.1949,-0.010772
751.0586,-0.010565
752.9222,-0.010570
754.7859,-0.010660
756.6496,-0.010691
758.5132,-0.010415
760.3769,-0.010116
762.2406,-0.010024
764.1043,-0.010146
765.9679,-0.010290
767.8316,-0.010092
769.6953,-0.009940
771.5589,-0.009964
773.4226,-0.009759
775.2863,-0.009575
777.1499,-0.009611
779.0136,-0.009507
780.8773,-0.009303
782.7409,-0.009249
784.6046,-0.009349
786.4683,-0.009346
788.3320,-0.009188
790.1956,-0.009224
792.0593,-0.009200
793.9230,-0.009054
795.7866,-0.009040
797.6503,-0.009066
799.5140,-0.008873
801.3776,-0.008526
803.2413,-0.008397
805.1050,-0.008398
806.9686,-0.008356
808.8323,-0.008344
810.6960,-0.008321
812.5596,-0.008324
814.4233,-0.008285
816.2870,-0.008241
818.1507,-0.008192
820.0143,-0.008110
821.8780,-0.008091
823.7417,-0.007933
825.6053,-0.007802
827.4690,-0.007815
829.3327,-0.007689
831.1963,-0.007520
833.0600,-0.007481
834.9237,-0.007500
836.7873,-0.007429
838.6510,-0.007296
840.5147,-0.007279
842.3784,-0.007295
844.2420,-0.007227
846.1057,-0.007166
847.9694,-0.007106
849.8330,-0.007098
851.6967,-0.007109
853.5604,-0.007106
855.4240,-0.007099
857.2877,-0.007046
859.1514,-0.007004
861.0150,-0.006927
862.8787,-0.006867
864.7424,-0.006904
866.6060,-0.006889
868.4697,-0.006879
870.3334,-0.006881
872.1971,-0.006858
874.0607,-0.006890
875.9244,-0.006926
877.7881,-0.006943
879.6517,-0.006861
881.5154,-0.006748
883.3791,-0.006748
885.2427,-0.006747
887.1064,-0.006785
888.9701,-0.006856
890.8337,-0.006837
892.6974,-0.006802
894.5611,-0.006828
896.4247,-0.006871
898.2884,-0.006853
900.1521,-0.006855
902.0158,-0.006861
903.8794,-0.006799
905.7431,-0.006757
907.6068,-0.006764
909.4704,-0.006770
911.3341,-0.006657
913.1978,-0.006587
915.0614,-0.006620
916.9251,-0.006605
918.7888,-0.006600
920.6524,-0.006559
922.5161,-0.006524
924.3798,-0.006464
926.2435,-0.006425
928.1071,-0.006455
929.9708,-0.006407
931.8345,-0.006325
933.6981,-0.006283
935.5618,-0.006271
937.4255,-0.006311
939.2891,-0.006277
941.1528,-0.006196
943.0165,-0.006157
944.8801,-0.006146
946.7438,-0.006162
948.6075,-0.006176
950.4711,-0.006127
952.3348,-0.006051
954.1985,-0.005979
956.0622,-0.005915
957.9258,-0.005873
959.7895,-0.005836
961.6532,-0.005796
963.5168,-0.005786
965.3805,-0.005715
967.2442,-0.005627
969.1078,-0.005601
970.9715,-0.005537
972.8352,-0.005427
974.6988,-0.005343
976.5625,-0.005240
978.4262,-0.005129
980.2899,-0.005020
982.1535,-0.004920
984.0172,-0.004815
985.8809,-0.004665
987.7445,-0.004546
989.6082,-0.004515
991.4719,-0.004459
993.3355,-0.004393
995.1992,-0.004336
997.0629,-0.004238
998.9265,-0.004154
1000.7902,-0.004107
1002.6539,-0.004109
1004.5175,-0.004117
1006.3812,-0.004066
1008.2449,-0.003979
1010.1086,-0.003942
1011.9722,-0.003897
1013.8359,-0.003793
1015.6996,-0.003724
1017.5632,-0.003689
1019.4269,-0.003592
1021.2906,-0.003482
1023.1542,-0.003464
1025.0179,-0.003453
1026.8816,-0.003377
1028.7452,-0.003306
1030.6089,-0.003251
1032.4726,-0.003255
1034.3362,-0.003266
1036.1999,-0.003240
1038.0636,-0.003238
1039.9273,-0.003258
1041.7909,-0.003288
1043.6546,-0.003306
1045.5183,-0.003283
1047.3819,-0.003275
1049.2456,-0.003253
1051.1093,-0.003249
1052.9729,-0.003278
1054.8366,-0.003307
1056.7003,-0.003331
1058.5639,-0.003356
1060.4276,-0.003399
1062.2913,-0.003424
1064.1550,-0.003407
1066.0186,-0.003432
1067.8823,-0.003470
1069.7460,-0.003438
1071.6096,-0.003417
1073.4733,-0.003425
1075.3370,-0.003433
1077.2006,-0.003437
1079.0643,-0.003450
1080.9280,-0.003487
1082.7916,-0.003535
1084.6553,-0.003577
1086.5190,-0.003646
1088.3826,-0.003696
1090.2463,-0.003747
1092.1100,-0.003835
1093.9737,-0.003885
1095.8373,-0.003890
1097.7010,-0.003937
1099.5647,-0.003998
1101.4283,-0.004018
1103.2920,-0.003967
1105.1557,-0.003972
1107.0193,-0.004046
1108.8830,-0.004113
1110.7467,-0.004131
1112.6103,-0.004105
1114.4740,-0.004075
1116.3377,-0.004091
1118.2014,-0.004152
1120.0650,-0.004198
1121.9287,-0.004229
1123.7924,-0.004264
1125.6560,-0.004276
1127.5197,-0.004321
1129.3834,-0.004379
1131.2470,-0.004412
1133.1107,-0.004434
1134.9744,-0.004439
1136.8380,-0.004462
1138.7017,-0.004510
1140.5654,-0.004510
1142.4290,-0.004491
1144.2927,-0.004509
1146.1564,-0.004545
1148.0201,-0.004574
1149.8837,-0.004593
1151.7474,-0.004628
1153.6111,-0.004647
1155.4747,-0.004651
1157.3384,-0.004668
1159.2021,-0.004688
1161.0657,-0.004703
1162.9294,-0.004719
1164.7931,-0.004704
1166.6567,-0.004737
1168.5204,-0.004866
1170.3841,-0.004875
1172.2477,-0.004782
1174.1114,-0.004748
1175.9751,-0.004776
1177.8388,-0.004794
1179.7024,-0.004789
1181.5661,-0.004779
1183.4298,-0.004745
1185.2934,-0.004713
1187.1571,-0.004718
1189.0208,-0.004706
1190.8844,-0.004685
1192.7481,-0.004643
1194.6118,-0.004641
1196.4754,-0.004613
1198.3391,-0.004610
1200.2028,-0.004631
1202.0665,-0.004583
1203.9301,-0.004556
1205.7938,-0.004548
1207.6575,-0.004546
1209.5211,-0.004557
1211.3848,-0.004573
1213.2485,-0.004578
1215.1121,-0.004597
1216.9758,-0.004607
1218.8395,-0.004567
1220.7031,-0.004572
1222.5668,-0.004594
1224.4305,-0.004597
1226.2941,-0.004608
1228.1578,-0.004624
1230.0215,-0.004610
1231.8852,-0.004625
1233.7488,-0.004636
1235.6125,-0.004619
1237.4762,-0.004651
1239.3398,-0.004689
1241.2035,-0.004677
1243.0672,-0.004670
1244.9308,-0.004686
1246.7945,-0.004691
1248.6582,-0.004733
1250.5218,-0.004779
1252.3855,-0.004769
1254.2492,-0.004813
1256.1129,-0.004869
1257.9765,-0.004824
1259.8402,-0.004812
1261.7039,-0.004896
1263.5675,-0.005010
1265.4312,-0.005007
1267.2949,-0.004955
1269.1585,-0.004970
1271.0222,-0.005008
1272.8859,-0.005032
1274.7495,-0.005062
1276.6132,-0.005041
1278.4769,-0.005017
1280.3405,-0.005072
1282.2042,-0.005095
1284.0679,-0.005102
1285.9316,-0.005082
1287.7952,-0.005070
1289.6589,-0.005084
1291.5226,-0.005080
1293.3862,-0.005052
1295.2499,-0.005057
1297.1136,-0.005059
1298.9772,-0.005053
1300.8409,-0.005081
1302.7046,-0.005132
1304.5682,-0.005121
1306.4319,-0.005052
1308.2956,-0.004988
1310.1592,-0.004956
1312.0229,-0.004997
1313.8866,-0.005040
1315.7503,-0.005022
1317.6139,-0.004983
1319.4776,-0.004965
1321.3413,-0.004974
1323.2049,-0.004976
1325.0686,-0.004993
1326.9323,-0.005026
1328.7959,-0.004996
1330.6596,-0.004913
1332.5233,-0.004904
1334.3869,-0.004894
1336.2506,-0.004835
1338.1143,-0.004800
1339.9780,-0.004844
1341.8416,-0.004797
1343.7053,-0.004782
1345.5690,-0.004715
1347.4326,-0.004675
1349.2963,-0.004624
1351.1600,-0.004620
1353.0236,-0.004672
1354.8873,-0.004697
1356.7510,-0.004666
1358.6146,-0.004633
1360.4783,-0.004643
1362.3420,-0.004731
1364.2056,-0.004626
1366.0693,-0.004602
1367.9330,-0.004631
1369.7967,-0.004510
1371.6603,-0.004460
1373.5240,-0.004553
1375.3877,-0.004482
1377.2513,-0.004466
1379.1150,-0.004423
1380.9787,-0.004326
1382.8423,-0.004242
1384.7060,-0.004204
1386.5697,-0.004388
1388.4333,-0.004336
1390.2970,-0.004181
1392.1607,-0.004120
1394.0244,-0.004119
1395.8880,-0.003943
1397.7517,-0.004069
1399.6154,-0.004083
1401.4790,-0.003929
1403.3427,-0.004005
1405.2064,-0.003961
1407.0700,-0.003865
1408.9337,-0.003869
1410.7974,-0.003923
1412.6610,-0.003911
1414.5247,-0.003807
1416.3884,-0.003771
1418.2520,-0.004082
1420.1157,-0.003955
1421.9794,-0.004030
1423.8431,-0.004214
1425.7067,-0.004112
1427.5704,-0.004253
1429.4341,-0.004403
1431.2977,-0.004404
1433.1614,-0.004222
1435.0251,-0.004339
1436.8887,-0.004564
1438.7524,-0.004418
1440.6161,-0.004480
1442.4797,-0.004450
1444.3434,-0.004454
1446.2071,-0.004579
1448.0707,-0.004670
1449.9344,-0.004635
1451.7981,-0.004620
1453.6618,-0.004265
1455.5254,-0.004495
1457.3891,-0.004829
1459.2528,-0.004739
1461.1164,-0.004477
1462.9801,-0.004610
1464.8438,-0.004854
1466.7074,-0.004807
1468.5711,-0.004641
1470.4348,-0.004712
1472.2984,-0.004999
1474.1621,-0.005001
1476.0258,-0.005122
1477.8895,-0.005058
1479.7531,-0.005111
1481.6168,-0.005152
1483.4805,-0.005121
1485.3441,-0.005128
1487.2078,-0.005083
1489.0715,-0.005339
1490.9351,-0.005384
1492.7988,-0.005180
1494.6625,-0.005209
1496.5261,-0.005306
1498.3898,-0.005449
1500.2535,-0.005416
1502.1171,-0.005058
1503.9808,-0.004909
1505.8445,-0.005360
1507.7082,-0.005506
1509.5718,-0.005372
1511.4355,-0.005230
1513.2992,-0.004949
1515.1628,-0.005051
1517.0265,-0.004957
1518.8902,-0.004823
1520.7538,-0.005131
1522.6175,-0.004866
1524.4812,-0.004935
1526.3448,-0.005001
1528.2085,-0.004925
1530.0722,-0.004747
1531.9359,-0.004961
1533.7995,-0.004927
1535.6632,-0.004498
1537.5269,-0.004670
1539.3905,-0.004807
1541.2542,-0.004723
1543.1179,-0.004740
1544.9815,-0.004633
1546.8452,-0.004384
1548.7089,-0.004470
1550.5725,-0.004360
1552.4362,-0.004547
1554.2999,-0.004322
1556.1635,-0.004107
1558.0272,-0.004978
1559.8909,-0.005017
1561.7546,-0.004690
1563.6182,-0.004696
1565.4819,-0.004460
1567.3456,-0.004619
1569.2092,-0.005001
1571.0729,-0.004797
1572.9366,-0.004688
1574.8002,-0.004991
1576.6639,-0.005205
1578.5276,-0.005155
1580.3912,-0.005242
1582.2549,-0.005263
1584.1186,-0.005455
1585.9822,-0.005556
1587.8459,-0.005669
1589.7096,-0.005730
1591.5733,-0.005899
1593.4369,-0.006083
1595.3006,-0.006266
1597.1643,-0.006522
1599.0279,-0.006800
1600.8916,-0.006912
1602.7553,-0.007120
1604.6189,-0.007291
1606.4826,-0.007559
1608.3463,-0.007860
1610.2099,-0.008138
1612.0736,-0.008212
1613.9373,-0.008549
1615.8010,-0.009198
1617.6646,-0.009325
1619.5283,-0.009250
1621.3920,-0.009446
1623.2556,-0.009637
1625.1193,-0.009757
1626.9830,-0.010106
1628.8466,-0.010090
1630.7103,-0.009912
1632.5740,-0.009874
1634.4376,-0.010299
1636.3013,-0.010332
1638.1650,-0.010216
1640.0286,-0.010140
1641.8923,-0.009905
1643.7560,-0.009787
1645.6197,-0.010085
1647.4833,-0.009845
1649.3470,-0.009180
1651.2107,-0.009418
1653.0743,-0.009738
1654.9380,-0.009162
1656.8017,-0.008992
1658.6653,-0.008678
1660.5290,-0.008650
1662.3927,-0.008726
1664.2563,-0.008360
1666.1200,-0.008132
1667.9837,-0.008273
1669.8474,-0.008187
1671.7110,-0.007820
1673.5747,-0.007807
1675.4384,-0.007846
1677.3020,-0.007639
1679.1657,-0.007398
1681.0294,-0.007063
1682.8930,-0.007627
1684.7567,-0.007511
1686.6204,-0.007178
1688.4840,-0.007097
1690.3477,-0.007005
1692.2114,-0.006772
1694.0750,-0.006984
1695.9387,-0.006757
1697.8024,-0.006791
1699.6661,-0.007181
1701.5297,-0.006702
1703.3934,-0.006702
1705.2571,-0.006680
1707.1207,-0.006581
1708.9844,-0.006507
1710.8481,-0.006411
1712.7117,-0.006262
1714.5754,-0.006121
1716.4391,-0.006457
1718.3027,-0.006574
1720.1664,-0.006261
1722.0301,-0.006164
1723.8937,-0.006116
1725.7574,-0.006135
1727.6211,-0.006115
1729.4848,-0.005963
1731.3484,-0.005916
1733.2121,-0.006387
1735.0758,-0.006133
1736.9394,-0.005938
1738.8031,-0.005830
1740.6668,-0.005766
1742.5304,-0.005779
1744.3941,-0.005732
1746.2578,-0.005765
1748.1214,-0.005807
1749.9851,-0.005939
1751.8488,-0.005807
1753.7125,-0.005675
1755.5761,-0.005757
1757.4398,-0.005651
1759.3035,-0.005733
1761.1671,-0.005860
1763.0308,-0.005798
1764.8945,-0.005708
1766.7581,-0.005742
1768.6218,-0.005529
1770.4855,-0.005676
1772.3491,-0.005721
1774.2128,-0.005647
1776.0765,-0.005583
1777.9401,-0.005522
1779.8038,-0.005421
1781.6675,-0.005385
1783.5312,-0.005523
1785.3948,-0.005518
1787.2585,-0.005367
1789.1222,-0.005317
1790.9858,-0.005523
1792.8495,-0.005588
1794.7132,-0.005492
1796.5768,-0.005351
1798.4405,-0.005393
1800.3042,-0.005406
1802.1678,-0.005395
1804.0315,-0.005383
1805.8952,-0.005369
1807.7589,-0.005449
1809.6225,-0.005508
1811.4862,-0.005437
1813.3499,-0.005500
1815.2135,-0.005607
1817.0772,-0.005643
1818.9409,-0.005559
1820.8045,-0.005337
1822.6682,-0.005192
1824.5319,-0.005040
1826.3955,-0.004892
1828.2592,-0.005146
1830.1229,-0.005211
1831.9865,-0.005075
1833.8502,-0.005131
1835.7139,-0.005256
1837.5776,-0.005133
1839.4412,-0.005020
1841.3049,-0.005114
1843.1686,-0.005286
1845.0322,-0.005160
1846.8959,-0.005082
1848.7596,-0.005096
1850.6232,-0.005180
1852.4869,-0.005184
1854.3506,-0.005094
1856.2142,-0.004954
1858.0779,-0.004911
1859.9416,-0.004959
1861.8052,-0.004982
1863.6689,-0.004954
1865.5326,-0.004894
1867.3963,-0.004839
1869.2599,-0.004943
1871.1236,-0.005084
1872.9873,-0.005062
1874.8509,-0.005006
1876.7146,-0.004989
1878.5783,-0.004956
1880.4419,-0.004936
1882.3056,-0.004979
1884.1693,-0.004987
1886.0329,-0.004916
1887.8966,-0.005165
1889.7603,-0.005177
1891.6240,-0.004943
1893.4876,-0.004911
1895.3513,-0.004930
1897.2150,-0.004832
1899.0786,-0.004760
1900.9423,-0.004781
1902.8060,-0.004750
1904.6696,-0.004695
1906.5333,-0.004764
1908.3970,-0.004819
1910.2606,-0.004847
1912.1243,-0.004781
1913.9880,-0.004577
1915.8516,-0.004460
1917.7153,-0.004415
1919.5790,-0.004570
1921.4427,-0.004786
1923.3063,-0.004666
1925.1700,-0.004536
1927.0337,-0.004744
1928.8973,-0.004792
1930.7610,-0.004584
1932.6247,-0.004415
1934.4883,-0.004333
1936.3520,-0.004363
1938.2157,-0.004536
1940.0793,-0.004732
1941.9430,-0.004543
1943.8067,-0.004204
1945.6704,-0.004142
1947.5340,-0.004145
1949.3977,-0.003895
1951.2614,-0.003986
1953.1250,-0.004389
1954.9887,-0.004378
1956.8524,-0.004075
1958.7160,-0.003820
1960.5797,-0.003602
1962.4434,-0.003316
1964.3070,-0.003414
1966.1707,-0.003772
1968.0344,-0.003791
1969.8980,-0.003203
1971.7617,-0.002738
1973.6254,-0.002519
1975.4891,-0.002189
1977.3527,-0.001700
1979.2164,-0.001242
1981.0801,-0.001483
1982.9437,-0.001808
1984.8074,-0.002241
1986.6711,-0.002962
1988.5347,-0.002964
1990.3984,-0.002864
1992.2621,-0.003165
1994.1257,-0.003145
1995.9894,-0.002894
1997.8531,-0.002883
1999.7167,-0.003071
2001.5804,-0.003337
2003.4441,-0.003401
2005.3078,-0.003394
2007.1714,-0.003166
2009.0351,-0.002678
2010.8988,-0.002426
2012.7624,-0.002276
2014.6261,-0.002043
2016.4898,-0.002604
2018.3534,-0.003118
2020.2171,-0.002524
2022.0808,-0.002103
2023.9444,-0.002547
2025.8081,-0.002722
2027.6718,-0.002481
2029.5355,-0.002254
2031.3991,-0.002348
2033.2628,-0.002546
2035.1265,-0.002398
2036.9901,-0.002506
2038.8538,-0.002670
2040.7175,-0.002868
2042.5811,-0.003114
2044.4448,-0.002996
2046.3085,-0.002771
2048.1721,-0.002218
2050.0358,-0.001769
2051.8995,-0.002395
2053.7631,-0.003260
2055.6268,-0.003305
2057.4905,-0.003108
2059.3542,-0.003256
2061.2178,-0.003594
2063.0815,-0.003645
2064.9452,-0.003832
2066.8088,-0.004157
2068.6725,-0.004075
2070.5362,-0.003813
2072.3998,-0.003805
2074.2635,-0.003731
2076.1272,-0.003832
2077.9908,-0.004103
2079.8545,-0.004249
2081.7182,-0.004195
2083.5819,-0.004025
2085.4455,-0.004139
2087.3092,-0.004335
2089.1729,-0.004560
2091.0365,-0.004678
2092.9002,-0.004550
2094.7639,-0.004610
2096.6275,-0.004466
2098.4912,-0.004155
2100.3549,-0.004175
2102.2185,-0.004356
2104.0822,-0.004440
2105.9459,-0.004355
2107.8095,-0.004316
2109.6732,-0.004373
2111.5369,-0.004446
2113.4006,-0.004553
2115.2642,-0.004555
2117.1279,-0.004600
2118.9916,-0.004658
2120.8552,-0.004855
2122.7189,-0.005145
2124.5826,-0.005299
2126.4462,-0.005252
2128.3099,-0.005531
2130.1736,-0.005867
2132.0372,-0.005814
2133.9009,-0.005584
2135.7646,-0.005199
2137.6282,-0.004755
2139.4919,-0.004788
2141.3556,-0.004980
2143.2193,-0.004758
2145.0829,-0.004451
2146.9466,-0.004163
2148.8103,-0.004096
2150.6739,-0.004367
2152.5376,-0.004183
2154.4013,-0.003981
2156.2649,-0.004201
2158.1286,-0.003253
2159.9923,-0.001033
2161.8559,-0.000820
2163.7196,-0.002068
2165.5833,-0.002319
2167.4470,-0.001970
2169.3106,-0.002230
2171.1743,-0.002821
2173.0380,-0.002948
2174.9016,-0.002742
2176.7653,-0.002815
2178.6290,-0.003051
2180.4926,-0.002914
2182.3563,-0.002015
2184.2200,-0.001782
2186.0836,-0.002266
2187.9473,-0.002098
2189.8110,-0.002430
2191.6746,-0.003345
2193.5383,-0.003406
2195.4020,-0.003371
2197.2657,-0.003471
2199.1293,-0.003460
2200.9930,-0.003505
2202.8567,-0.003235
2204.7203,-0.002992
2206.5840,-0.003209
2208.4477,-0.003322
2210.3113,-0.003191
2212.1750,-0.003114
2214.0387,-0.003164
2215.9023,-0.003254
2217.7660,-0.003427
2219.6297,-0.003511
2221.4934,-0.003366
2223.3570,-0.002969
2225.2207,-0.003066
2227.0844,-0.003418
2228.9480,-0.003438
2230.8117,-0.003258
2232.6754,-0.003289
2234.5390,-0.003469
2236.4027,-0.003234
2238.2664,-0.003143
2240.1300,-0.003463
2241.9937,-0.003646
2243.8574,-0.003641
2245.7210,-0.003485
2247.5847,-0.003434
2249.4484,-0.003473
2251.3121,-0.003506
2253.1757,-0.003629
2255.0394,-0.003524
2256.9031,-0.003334
2258.7667,-0.003638
2260.6304,-0.004040
2262.4941,-0.003985
2264.3577,-0.003704
2266.2214,-0.003665
2268.0851,-0.003545
2269.9487,-0.003458
2271.8124,-0.003676
2273.6761,-0.003749
2275.5397,-0.003569
2277.4034,-0.003452
2279.2671,-0.003441
2281.1308,-0.003410
2282.9944,-0.003274
2284.8581,-0.003378
2286.7218,-0.003584
2288.5854,-0.003625
2290.4491,-0.003647
2292.3128,-0.003802
2294.1764,-0.003915
2296.0401,-0.004080
2297.9038,-0.004238
2299.7674,-0.004234
2301.6311,-0.004208
2303.4948,-0.004216
2305.3585,-0.004179
2307.2221,-0.004166
2309.0858,-0.004250
2310.9495,-0.004293
2312.8131,-0.004214
2314.6768,-0.004065
2316.5405,-0.003935
2318.4041,-0.004074
2320.2678,-0.004054
2322.1315,-0.003492
2323.9951,-0.003260
2325.8588,-0.003802
2327.7225,-0.004465
2329.5861,-0.004821
2331.4498,-0.004775
2333.3135,-0.004583
2335.1772,-0.004560
2337.0408,-0.004646
2338.9045,-0.004590
2340.7682,-0.004612
2342.6318,-0.004717
2344.4955,-0.004877
2346.3592,-0.004804
2348.2228,-0.004663
2350.0865,-0.004751
2351.9502,-0.005006
2353.8138,-0.004867
2355.6775,-0.004917
2357.5412,-0.005192
2359.4049,-0.004937
2361.2685,-0.004573
2363.1322,-0.004446
2364.9959,-0.004310
2366.8595,-0.004689
2368.7232,-0.004947
2370.5869,-0.004897
2372.4505,-0.004932
2374.3142,-0.004991
2376.1779,-0.004960
2378.0415,-0.004876
2379.9052,-0.004886
2381.7689,-0.005139
2383.6325,-0.005305
2385.4962,-0.005296
2387.3599,-0.005202
2389.2236,-0.005132
2391.0872,-0.005138
2392.9509,-0.005276
2394.8146,-0.005371
2396.6782,-0.005412
2398.5419,-0.005423
2400.4056,-0.005286
2402.2692,-0.005127
2404.1329,-0.005166
2405.9966,-0.005093
2407.8602,-0.004912
2409.7239,-0.004928
2411.5876,-0.005068
2413.4512,-0.005092
2415.3149,-0.005078
2417.1786,-0.005026
2419.0423,-0.004948
2420.9059,-0.004968
2422.7696,-0.004969
2424.6333,-0.004860
2426.4969,-0.004901
2428.3606,-0.005011
2430.2243,-0.004995
2432.0879,-0.004810
2433.9516,-0.004697
2435.8153,-0.004700
2437.6789,-0.004670
2439.5426,-0.004665
2441.4063,-0.004721
2443.2700,-0.004712
2445.1336,-0.004695
2446.9973,-0.004657
2448.8610,-0.004557
2450.7246,-0.004549
2452.5883,-0.004626
2454.4520,-0.004503
2456.3156,-0.004401
2458.1793,-0.004505
2460.0430,-0.004689
2461.9066,-0.004751
2463.7703,-0.004769
2465.6340,-0.004747
2467.4976,-0.004626
2469.3613,-0.004666
2471.2250,-0.004830
2473.0887,-0.004874
2474.9523,-0.004717
2476.8160,-0.004616
2478.6797,-0.004797
2480.5433,-0.004902
2482.4070,-0.004826
2484.2707,-0.004764
2486.1343,-0.004803
2487.9980,-0.004749
2489.8617,-0.004678
2491.7253,-0.004685
2493.5890,-0.004733
2495.4527,-0.004704
2497.3164,-0.004573
2499.1800,-0.004673
2501.0437,-0.004783
2502.9074,-0.004720
2504.7710,-0.004669
2506.6347,-0.004689
2508.4984,-0.004680
2510.3620,-0.004603
2512.2257,-0.004578
2514.0894,-0.004700
2515.9530,-0.004889
2517.8167,-0.004795
2519.6804,-0.004561
2521.5440,-0.004572
2523.4077,-0.004591
2525.2714,-0.004476
2527.1351,-0.004566
