Wavenumber,Intensity
650.4205,0.079144
652.2841,0.078809
654.1478,0.078377
656.0115,0.081295
657.8751,0.080001
659.7388,0.075260
661.6025,0.075198
663.4661,0.076515
665.3298,0.075847
667.1935,0.075816
669.0571,0.075768
670.9208,0.074606
672.7845,0.072950
674.6481,0.071683
676.5118,0.070789
678.3755,0.068990
680.2392,0.068928
682.1028,0.070745
683.9665,0.071312
685.8302,0.070520
687.6938,0.068745
689.5575,0.067584
691.4212,0.067784
693.2848,0.067670
695.1485,0.067084
697.0122,0.066938
698.8758,0.066479
700.7395,0.066394
702.6032,0.066087
704.4669,0.065361
706.3305,0.064812
708.1942,0.064244
710.0579,0.062405
711.9215,0.060080
713.7852,0.059538
715.6489,0.059814
717.5125,0.059241
719.3762,0.058725
721.2399,0.058321
723.1035,0.057823
724.9672,0.057154
726.8309,0.056668
728.6945,0.056560
730.5582,0.056176
732.4219,0.055216
734.2856,0.055055
736.1492,0.055281
738.0129,0.054461
739.8766,0.053604
741.7402,0.053691
743.6039,0.054034
745.4676,0.053663
747.3312,0.052956
749.1949,0.052703
751.0586,0.052031
752.9222,0.051297
754.7859,0.050924
756.6496,0.050712
758.5132,0.050598
760.3769,0.050320
762.2406,0.049909
764.1043,0.049494
765.9679,0.048922
767.8316,0.048605
769.6953,0.048244
771.5589,0.047567
773.4226,0.047100
775.2863,0.047159
777.1499,0.046967
779.0136,0.046176
780.8773,0.045769
782.7409,0.045720
784.6046,0.045147
786.4683,0.044835
788.3320,0.044736
790.1956,0.044257
792.0593,0.043663
793.9230,0.043515
795.7866,0.043449
797.6503,0.043113
799.5140,0.042732
801.3776,0.042459
803.2413,0.042264
805.1050,0.042183
806.9686,0.041860
808.8323,0.041305
810.6960,0.040913
812.5596,0.040985
814.4233,0.041035
816.2870,0.040775
818.1507,0.040491
820.0143,0.040110
821.8780,0.039673
823.7417,0.039109
825.6053,0.038762
827.4690,0.038696
829.3327,0.038336
831.1963,0.038105
833.0600,0.037826
834.9237,0.037571
836.7873,0.037235
838.6510,0.036770
840.5147,0.036331
842.3784,0.036073
844.2420,0.035864
846.1057,0.035540
847.9694,0.035303
849.8330,0.035236
851.6967,0.034882
853.5604,0.034697
855.4240,0.034794
857.2877,0.034715
859.1514,0.034570
861.0150,0.034501
862.8787,0.034521
864.7424,0.034604
866.6060,0.034555
868.4697,0.034448
870.3334,0.034497
872.1971,0.034695
874.0607,0.034785
875.9244,0.034595
877.7881,0.034537
879.6517,0.034632
881.5154,0.034206
883.3791,0.033779
885.2427,0.033711
887.1064,0.033724
888.9701,0.033719
890.8337,0.033569
892.6974,0.033533
894.5611,0.033672
896.4247,0.033658
898.2884,0.033531
900.1521,0.033290
902.0158,0.033202
903.8794,0.033110
905.7431,0.032909
907.6068,0.032799
909.4704,0.032860
911.3341,0.032976
913.1978,0.033144
915.0614,0.033429
916.9251,0.033752
918.7888,0.033971
920.6524,0.033945
922.5161,0.033944
924.3798,0.033972
926.2435,0.033992
928.1071,0.034121
929.9708,0.034156
931.8345,0.034076
933.6981,0.034013
935.5618,0.034048
937.4255,0.034223
939.2891,0.034439
941.1528,0.034607
943.0165,0.034768
944.8801,0.034926
946.7438,0.034966
948.6075,0.034847
950.4711,0.034796
952.3348,0.034874
954.1985,0.034915
956.0622,0.035052
957.9258,0.035448
959.7895,0.036024
961.6532,0.036686
963.5168,0.037467
965.3805,0.038300
967.2442,0.038813
969.1078,0.039064
970.9715,0.039153
972.8352,0.039056
974.6988,0.038960
976.5625,0.039142
978.4262,0.039471
980.2899,0.039836
982.1535,0.040334
984.0172,0.040908
985.8809,0.041452
987.7445,0.042067
989.6082,0.042646
991.4719,0.043285
993.3355,0.044093
995.1992,0.044889
997.0629,0.045618
998.9265,0.046423
1000.7902,0.047239
1002.6539,0.048037
1004.5175,0.048806
1006.3812,0.049750
1008.2449,0.050972
1010.1086,0.052327
1011.9722,0.053791
1013.8359,0.055338
1015.6996,0.056831
1017.5632,0.058259
1019.4269,0.059548
1021.2906,0.060598
1023.1542,0.061341
1025.0179,0.061921
1026.8816,0.062454
1028.7452,0.062995
1030.6089,0.063469
1032.4726,0.063757
1034.3362,0.063818
1036.1999,0.063722
1038.0636,0.063544
1039.9273,0.063332
1041.7909,0.063032
1043.6546,0.062644
1045.5183,0.062351
1047.3819,0.062072
1049.2456,0.061810
1051.1093,0.061663
1052.9729,0.061614
1054.8366,0.061637
1056.7003,0.061773
1058.5639,0.061940
1060.4276,0.062117
1062.2913,0.062237
1064.1550,0.062453
1066.0186,0.062742
1067.8823,0.062913
1069.7460,0.062941
1071.6096,0.062767
1073.4733,0.062448
1075.3370,0.061884
1077.2006,0.061085
1079.0643,0.059974
1080.9280,0.058576
1082.7916,0.057115
1084.6553,0.055547
1086.5190,0.054036
1088.3826,0.052776
1090.2463,0.051631
1092.1100,0.050737
1093.9737,0.049983
1095.8373,0.049271
1097.7010,0.048682
1099.5647,0.048200
1101.4283,0.047795
1103.2920,0.047480
1105.1557,0.047340
1107.0193,0.047343
1108.8830,0.047308
1110.7467,0.047304
1112.6103,0.047291
1114.4740,0.047228
1116.3377,0.047013
1118.2014,0.046602
1120.0650,0.046233
1121.9287,0.045964
1123.7924,0.045635
1125.6560,0.045259
1127.5197,0.044786
1129.3834,0.044384
1131.2470,0.043951
1133.1107,0.043413
1134.9744,0.042837
1136.8380,0.042287
1138.7017,0.041918
1140.5654,0.041642
1142.4290,0.041438
1144.2927,0.041373
1146.1564,0.041435
1148.0201,0.041608
1149.8837,0.041808
1151.7474,0.041988
1153.6111,0.042088
1155.4747,0.042133
1157.3384,0.042058
1159.2021,0.041856
1161.0657,0.041632
1162.9294,0.041355
1164.7931,0.040949
1166.6567,0.040469
1168.5204,0.039861
1170.3841,0.039029
1172.2477,0.038056
1174.1114,0.037205
1175.9751,0.036307
1177.8388,0.035452
1179.7024,0.034858
1181.5661,0.034459
1183.4298,0.034246
1185.2934,0.034272
1187.1571,0.034451
1189.0208,0.034658
1190.8844,0.034964
1192.7481,0.035301
1194.6118,0.035793
1196.4754,0.036304
1198.3391,0.036816
1200.2028,0.037370
1202.0665,0.037947
1203.9301,0.038405
1205.7938,0.038807
1207.6575,0.039177
1209.5211,0.039540
1211.3848,0.039870
1213.2485,0.040159
1215.1121,0.040604
1216.9758,0.041181
1218.8395,0.041795
1220.7031,0.042404
1222.5668,0.043045
1224.4305,0.043759
1226.2941,0.044515
1228.1578,0.045111
1230.0215,0.045503
1231.8852,0.045833
1233.7488,0.046112
1235.6125,0.046383
1237.4762,0.046593
1239.3398,0.046570
1241.2035,0.046363
1243.0672,0.046132
1244.9308,0.045777
1246.7945,0.045294
1248.6582,0.044787
1250.5218,0.044448
1252.3855,0.044092
1254.2492,0.043636
1256.1129,0.043199
1257.9765,0.042850
1259.8402,0.042541
1261.7039,0.042234
1263.5675,0.041969
1265.4312,0.041816
1267.2949,0.041631
1269.1585,0.041403
1271.0222,0.041320
1272.8859,0.041209
1274.7495,0.041002
1276.6132,0.040867
1278.4769,0.040783
1280.3405,0.040709
1282.2042,0.040614
1284.0679,0.040543
1285.9316,0.040439
1287.7952,0.040445
1289.6589,0.040450
1291.5226,0.040397
1293.3862,0.040465
1295.2499,0.040605
1297.1136,0.040854
1298.9772,0.041102
1300.8409,0.041325
1302.7046,0.041534
1304.5682,0.041660
1306.4319,0.041882
1308.2956,0.042114
1310.1592,0.042300
1312.0229,0.042551
1313.8866,0.042575
1315.7503,0.042308
1317.6139,0.042270
1319.4776,0.042238
1321.3413,0.041856
1323.2049,0.041471
1325.0686,0.041323
1326.9323,0.041065
1328.7959,0.040768
1330.6596,0.040737
1332.5233,0.040780
1334.3869,0.040653
1336.2506,0.040579
1338.1143,0.040944
1339.9780,0.041446
1341.8416,0.041220
1343.7053,0.040813
1345.5690,0.040734
1347.4326,0.040687
1349.2963,0.040657
1351.1600,0.040590
1353.0236,0.040486
1354.8873,0.040576
1356.7510,0.040665
1358.6146,0.040570
1360.4783,0.041036
1362.3420,0.042389
1364.2056,0.043138
1366.0693,0.043145
1367.9330,0.043816
1369.7967,0.044533
1371.6603,0.044871
1373.5240,0.045900
1375.3877,0.046925
1377.2513,0.047105
1379.1150,0.047350
1380.9787,0.047589
1382.8423,0.047616
1384.7060,0.047634
1386.5697,0.048374
1388.4333,0.048897
1390.2970,0.048291
1392.1607,0.047839
1394.0244,0.048493
1395.8880,0.049158
1397.7517,0.049154
1399.6154,0.049253
1401.4790,0.048393
1403.3427,0.047865
1405.2064,0.048120
1407.0700,0.047861
1408.9337,0.047317
1410.7974,0.047168
1412.6610,0.046733
1414.5247,0.045983
1416.3884,0.045595
1418.2520,0.046566
1420.1157,0.047068
1421.9794,0.045896
1423.8431,0.045807
1425.7067,0.045774
1427.5704,0.045456
1429.4341,0.046396
1431.2977,0.047171
1433.1614,0.046979
1435.0251,0.047776
1436.8887,0.050379
1438.7524,0.050658
1440.6161,0.050136
1442.4797,0.050308
1444.3434,0.050259
1446.2071,0.050457
1448.0707,0.051204
1449.9344,0.050912
1451.7981,0.049727
1453.6618,0.048456
1455.5254,0.048378
1457.3891,0.050438
1459.2528,0.049139
1461.1164,0.046401
1462.9801,0.045247
1464.8438,0.045843
1466.7074,0.044989
1468.5711,0.042839
1470.4348,0.041473
1472.2984,0.042182
1474.1621,0.042040
1476.0258,0.040871
1477.8895,0.039934
1479.7531,0.039394
1481.6168,0.039646
1483.4805,0.039702
1485.3441,0.039928
1487.2078,0.041578
1489.0715,0.044487
1490.9351,0.046515
1492.7988,0.046314
1494.6625,0.047117
1496.5261,0.050533
1498.3898,0.053415
1500.2535,0.054239
1502.1171,0.053886
1503.9808,0.053977
1505.8445,0.058673
1507.7082,0.065258
1509.5718,0.065176
1511.4355,0.065053
1513.2992,0.065600
1515.1628,0.066362
1517.0265,0.067516
1518.8902,0.067531
1520.7538,0.068728
1522.6175,0.070390
1524.4812,0.070097
1526.3448,0.070664
1528.2085,0.070925
1530.0722,0.070356
1531.9359,0.070608
1533.7995,0.071646
1535.6632,0.070311
1537.5269,0.068954
1539.3905,0.070561
1541.2542,0.072366
1543.1179,0.070954
1544.9815,0.069429
1546.8452,0.067723
1548.7089,0.066319
1550.5725,0.064983
1552.4362,0.063221
1554.2999,0.061331
1556.1635,0.059291
1558.0272,0.059853
1559.8909,0.060765
1561.7546,0.057195
1563.6182,0.054673
1565.4819,0.053062
1567.3456,0.051743
1569.2092,0.051550
1571.0729,0.050747
1572.9366,0.048713
1574.8002,0.048209
1576.6639,0.049373
1578.5276,0.048577
1580.3912,0.047307
1582.2549,0.047076
1584.1186,0.047212
1585.9822,0.047494
1587.8459,0.048044
1589.7096,0.048719
1591.5733,0.049417
1593.4369,0.050431
1595.3006,0.051736
1597.1643,0.053095
1599.0279,0.054395
1600.8916,0.055889
1602.7553,0.057684
1604.6189,0.059584
1606.4826,0.061641
1608.3463,0.063819
1610.2099,0.065578
1612.0736,0.067150
1613.9373,0.068609
1615.8010,0.071185
1617.6646,0.074073
1619.5283,0.074381
1621.3920,0.074625
1623.2556,0.076850
1625.1193,0.078376
1626.9830,0.078534
1628.8466,0.078848
1630.7103,0.078653
1632.5740,0.077826
1634.4376,0.077934
1636.3013,0.078722
1638.1650,0.077458
1640.0286,0.075583
1641.8923,0.073802
1643.7560,0.072252
1645.6197,0.071918
1647.4833,0.071292
1649.3470,0.068601
1651.2107,0.066440
1653.0743,0.066689
1654.9380,0.064841
1656.8017,0.061669
1658.6653,0.059212
1660.5290,0.057441
1662.3927,0.055974
1664.2563,0.053954
1666.1200,0.051492
1667.9837,0.049865
1669.8474,0.048592
1671.7110,0.046320
1673.5747,0.044285
1675.4384,0.042995
1677.3020,0.040924
1679.1657,0.038620
1681.0294,0.036560
1682.8930,0.035072
1684.7567,0.033737
1686.6204,0.031218
1688.4840,0.028639
1690.3477,0.026237
1692.2114,0.023844
1694.0750,0.021666
1695.9387,0.019981
1697.8024,0.018010
1699.6661,0.016321
1701.5297,0.014829
1703.3934,0.012844
1705.2571,0.011591
1707.1207,0.010823
1708.9844,0.009818
1710.8481,0.008896
1712.7117,0.008367
1714.5754,0.008138
1716.4391,0.007999
1718.3027,0.008157
1720.1664,0.007678
1722.0301,0.006759
1723.8937,0.006545
1725.7574,0.006523
1727.6211,0.006259
1729.4848,0.006030
1731.3484,0.005806
1733.2121,0.006018
1735.0758,0.006935
1736.9394,0.006720
1738.8031,0.006391
1740.6668,0.006489
1742.5304,0.006467
1744.3941,0.006303
1746.2578,0.005941
1748.1214,0.005555
1749.9851,0.005228
1751.8488,0.004691
1753.7125,0.003647
1755.5761,0.002552
1757.4398,0.002193
1759.3035,0.001786
1761.1671,0.001190
1763.0308,0.001121
1764.8945,0.000778
1766.7581,0.000373
1768.6218,0.000547
1770.4855,0.000416
1772.3491,0.000412
1774.2128,0.000357
1776.0765,-0.000079
1777.9401,-0.000255
1779.8038,-0.000238
1781.6675,-0.000113
1783.5312,-0.000022
1785.3948,-0.000081
1787.2585,-0.000183
1789.1222,-0.000190
1790.9858,-0.000224
1792.8495,-0.000172
1794.7132,-0.000142
1796.5768,-0.000405
1798.4405,-0.000590
1800.3042,-0.000500
1802.1678,-0.000294
1804.0315,-0.000343
1805.8952,-0.000531
1807.7589,-0.000554
1809.6225,-0.000489
1811.4862,-0.000523
1813.3499,-0.000614
1815.2135,-0.000870
1817.0772,-0.001057
1818.9409,-0.000801
1820.8045,-0.000586
1822.6682,-0.000731
1824.5319,-0.000793
1826.3955,-0.000607
1828.2592,-0.000473
1830.1229,-0.000159
1831.9865,-0.000152
1833.8502,-0.000583
1835.7139,-0.000458
1837.5776,-0.000106
1839.4412,-0.000191
1841.3049,-0.000611
1843.1686,-0.000990
1845.0322,-0.000436
1846.8959,-0.000010
1848.7596,-0.000208
1850.6232,-0.000296
1852.4869,-0.000474
1854.3506,-0.000678
1856.2142,-0.000571
1858.0779,-0.000194
1859.9416,0.000078
1861.8052,-0.000155
1863.6689,-0.000522
1865.5326,-0.000397
1867.3963,-0.000212
1869.2599,-0.000224
1871.1236,-0.000241
1872.9873,-0.000360
1874.8509,-0.000279
1876.7146,-0.000318
1878.5783,-0.000458
1880.4419,-0.000343
1882.3056,-0.000384
1884.1693,-0.000377
1886.0329,-0.000181
1887.8966,-0.000103
1889.7603,-0.000090
1891.6240,-0.000052
1893.4876,0.000043
1895.3513,0.000192
1897.2150,0.000258
1899.0786,0.000340
1900.9423,0.000682
1902.8060,0.000626
1904.6696,0.000478
1906.5333,0.000666
1908.3970,0.000483
1910.2606,0.000223
1912.1243,0.000272
1913.9880,0.000622
1915.8516,0.000770
1917.7153,0.000529
1919.5790,0.000713
1921.4427,0.000964
1923.3063,0.001000
1925.1700,0.000699
1927.0337,0.000495
1928.8973,0.000932
1930.7610,0.001380
1932.6247,0.000965
1934.4883,0.000281
1936.3520,0.000553
1938.2157,0.001042
1940.0793,0.000849
1941.9430,0.000631
1943.8067,0.001150
1945.6704,0.001283
1947.5340,0.000862
1949.3977,0.000845
1951.2614,0.001379
1953.1250,0.001812
1954.9887,0.001180
1956.8524,0.001230
1958.7160,0.001814
1960.5797,0.001159
1962.4434,0.000942
1964.3070,0.001941
1966.1707,0.001993
1968.0344,0.001366
1969.8980,0.001476
1971.7617,0.001433
1973.6254,0.000675
1975.4891,0.001263
1977.3527,0.003435
1979.2164,0.005211
1981.0801,0.005047
1982.9437,0.003777
1984.8074,0.003005
1986.6711,0.002781
1988.5347,0.003221
1990.3984,0.003049
1992.2621,0.002129
1994.1257,0.001643
1995.9894,0.002272
1997.8531,0.002456
1999.7167,0.002054
2001.5804,0.002783
2003.4441,0.003433
2005.3078,0.003018
2007.1714,0.002696
2009.0351,0.002162
2010.8988,0.001930
2012.7624,0.003631
2014.6261,0.004582
2016.4898,0.003485
2018.3534,0.002272
2020.2171,0.001814
2022.0808,0.003272
2023.9444,0.004079
2025.8081,0.003571
2027.6718,0.003571
2029.5355,0.004146
2031.3991,0.004923
2033.2628,0.004833
2035.1265,0.005672
2036.9901,0.005818
2038.8538,0.005001
2040.7175,0.004942
2042.5811,0.005117
2044.4448,0.005848
2046.3085,0.006686
2048.1721,0.007127
2050.0358,0.007536
2051.8995,0.006539
2053.7631,0.005894
2055.6268,0.006369
2057.4905,0.006506
2059.3542,0.006255
2061.2178,0.006008
2063.0815,0.005873
2064.9452,0.005507
2066.8088,0.005101
2068.6725,0.005150
2070.5362,0.005729
2072.3998,0.006415
2074.2635,0.005643
2076.1272,0.004565
2077.9908,0.004403
2079.8545,0.004648
2081.7182,0.004339
2083.5819,0.003849
2085.4455,0.003608
2087.3092,0.003236
2089.1729,0.002650
2091.0365,0.002956
2092.9002,0.003613
2094.7639,0.003538
2096.6275,0.003183
2098.4912,0.003482
2100.3549,0.003876
2102.2185,0.003839
2104.0822,0.003359
2105.9459,0.003073
2107.8095,0.003421
2109.6732,0.003361
2111.5369,0.003040
2113.4006,0.003689
2115.2642,0.003619
2117.1279,0.002608
2118.9916,0.002465
2120.8552,0.002555
2122.7189,0.002129
2124.5826,0.002003
2126.4462,0.002485
2128.3099,0.002583
2130.1736,0.002141
2132.0372,0.002184
2133.9009,0.002793
2135.7646,0.002428
2137.6282,0.001756
2139.4919,0.002250
2141.3556,0.002791
2143.2193,0.003052
2145.0829,0.003364
2146.9466,0.003289
2148.8103,0.003170
2150.6739,0.002247
2152.5376,0.001338
2154.4013,0.001267
2156.2649,0.001849
2158.1286,0.004219
2159.9923,0.007294
2161.8559,0.008202
2163.7196,0.006815
2165.5833,0.006166
2167.4470,0.006054
2169.3106,0.004794
2171.1743,0.003139
2173.0380,0.003319
2174.9016,0.004152
2176.7653,0.004727
2178.6290,0.004163
2180.4926,0.003583
2182.3563,0.004336
2184.2200,0.005076
2186.0836,0.004222
2187.9473,0.003371
2189.8110,0.003150
2191.6746,0.003997
2193.5383,0.004473
2195.4020,0.004428
2197.2657,0.005130
2199.1293,0.005427
2200.9930,0.004857
2202.8567,0.004885
2204.7203,0.005175
2206.5840,0.004996
2208.4477,0.004943
2210.3113,0.004501
2212.1750,0.003707
2214.0387,0.003514
2215.9023,0.004158
2217.7660,0.004454
2219.6297,0.004090
2221.4934,0.004058
2223.3570,0.004006
2225.2207,0.004151
2227.0844,0.004067
2228.9480,0.003991
2230.8117,0.004407
2232.6754,0.004487
2234.5390,0.004144
2236.4027,0.004370
2238.2664,0.004586
2240.1300,0.004333
2241.9937,0.003429
2243.8574,0.002930
2245.7210,0.003152
2247.5847,0.003828
2249.4484,0.004100
2251.3121,0.003395
2253.1757,0.002531
2255.0394,0.003237
2256.9031,0.004224
2258.7667,0.004008
2260.6304,0.003056
2262.4941,0.003197
2264.3577,0.003999
2266.2214,0.004075
2268.0851,0.003711
2269.9487,0.003310
2271.8124,0.003087
2273.6761,0.003574
2275.5397,0.004317
2277.4034,0.004442
2279.2671,0.004717
2281.1308,0.004591
2282.9944,0.004338
2284.8581,0.004375
2286.7218,0.004265
2288.5854,0.003945
2290.4491,0.003857
2292.3128,0.004113
2294.1764,0.004014
2296.0401,0.003781
2297.9038,0.003437
2299.7674,0.003433
2301.6311,0.003664
2303.4948,0.003757
2305.3585,0.003414
2307.2221,0.003066
2309.0858,0.003298
2310.9495,0.003293
2312.8131,0.003323
2314.6768,0.003468
2316.5405,0.003370
2318.4041,0.003367
2320.2678,0.003772
2322.1315,0.004204
2323.9951,0.003983
2325.8588,0.003584
2327.7225,0.003149
2329.5861,0.003015
2331.4498,0.002733
2333.3135,0.002777
2335.1772,0.002889
2337.0408,0.002552
2338.9045,0.003078
2340.7682,0.003536
2342.6318,0.003633
2344.4955,0.003952
2346.3592,0.003506
2348.2228,0.002593
2350.0865,0.001917
2351.9502,0.001747
2353.8138,0.002076
2355.6775,0.002321
2357.5412,0.002448
2359.4049,0.003043
2361.2685,0.003405
2363.1322,0.003957
2364.9959,0.004016
2366.8595,0.003565
2368.7232,0.003735
2370.5869,0.003815
2372.4505,0.003559
2374.3142,0.003844
2376.1779,0.004087
2378.0415,0.003791
2379.9052,0.003359
2381.7689,0.003257
2383.6325,0.003386
2385.4962,0.003383
2387.3599,0.003339
2389.2236,0.003395
2391.0872,0.003178
2392.9509,0.002955
2394.8146,0.003076
2396.6782,0.003151
2398.5419,0.002886
2400.4056,0.002673
2402.2692,0.002773
2404.1329,0.002958
2405.9966,0.003417
2407.8602,0.003643
2409.7239,0.003582
2411.5876,0.003423
2413.4512,0.003300
2415.3149,0.003423
2417.1786,0.003255
2419.0423,0.003195
2420.9059,0.003606
2422.7696,0.003713
2424.6333,0.003400
2426.4969,0.003275
2428.3606,0.003412
2430.2243,0.003788
2432.0879,0.004043
2433.9516,0.003953
2435.8153,0.003984
2437.6789,0.003823
2439.5426,0.003587
2441.4063,0.003889
2443.2700,0.004169
2445.1336,0.004272
2446.9973,0.004260
2448.8610,0.003990
2450.7246,0.004003
2452.5883,0.004187
2454.4520,0.004206
2456.3156,0.004087
2458.1793,0.004247
2460.0430,0.004456
2461.9066,0.004441
2463.7703,0.004390
2465.6340,0.004327
2467.4976,0.004173
2469.3613,0.004039
2471.2250,0.004058
2473.0887,0.004091
2474.9523,0.004373
2476.8160,0.004488
2478.6797,0.004693
2480.5433,0.004842
2482.4070,0.004534
2484.2707,0.004369
2486.1343,0.004589
2487.9980,0.004458
2489.8617,0.004294
2491.7253,0.004570
2493.5890,0.004854
2495.4527,0.004866
2497.3164,0.004890
2499.1800,0.005053
2501.0437,0.004918
2502.9074,0.004733
2504.7710,0.004723
2506.6347,0.004700
2508.4984,0.004947
2510.3620,0.005231
2512.2257,0.005234
2514.0894,0.005081
2515.9530,0.005088
2517.8167,0.005244
2519.6804,0.005154
2521.5440,0.005020
2523.4077,0.004970
2525.2714,0.005253
2527.1351,0.005642
2528.9987,0.005714
2530.8624,0.005651
2532.7261,0.005434
2534.5897,0.005516
2536.4534,0.005404
2538.3171,0.005312
2540.1807,0.005557
2542.0444,0.005565
2543.9081,0.005469
2545.7717,0.005926
2547.6354,0.006151
2549.4991,0.005697
2551.3627,0.005414
2553.2264,0.005753
2555.0901,0.005838
2556.9538,0.006088
2558.8174,0.006463
2560.6811,0.006183
2562.5448,0.005811
2564.4084,0.005989
2566.2721,0.006135
2568.1358,0.006132
2569.9994,0.006258
2571.8631,0.006187
2573.7268,0.006182
2575.5904,0.006190
2577.4541,0.006205
2579.3178,0.006348
2581.1815,0.006296
2583.0451,0.006398
2584.9088,0.006590
2586.7725,0.006618
2588.6361,0.006750
2590.4998,0.006922
2592.3635,0.006875
2594.2271,0.006612
2596.0908,0.006435
2597.9545,0.006901
2599.8181,0.007126
2601.6818,0.007095
2603.5455,0.007221
2605.4091,0.007154
2607.2728,0.007070
2609.1365,0.007286
2611.0002,0.007360
2612.8638,0.007425
2614.7275,0.007583
2616.5912,0.007697
2618.4548,0.007857
2620.3185,0.007988
