Wavenumber,Intensity
650.4205,-0.007084
652.2841,-0.007699
654.1478,-0.007573
656.0115,-0.006441
657.8751,-0.006563
659.7388,-0.008056
661.6025,-0.008662
663.4661,-0.007618
665.3298,-0.005765
667.1935,-0.004897
669.0571,-0.008484
670.9208,-0.008769
672.7845,-0.008041
674.6481,-0.007123
676.5118,-0.006478
678.3755,-0.007164
680.2392,-0.007568
682.1028,-0.007435
683.9665,-0.007845
685.8302,-0.008283
687.6938,-0.008124
689.5575,-0.007771
691.4212,-0.007554
693.2848,-0.008099
695.1485,-0.008810
697.0122,-0.008490
698.8758,-0.008050
700.7395,-0.008109
702.6032,-0.008006
704.4669,-0.007842
706.3305,-0.007942
708.1942,-0.008069
710.0579,-0.008045
711.9215,-0.007863
713.7852,-0.007840
715.6489,-0.007901
717.5125,-0.007717
719.3762,-0.007604
721.2399,-0.007557
723.1035,-0.007822
724.9672,-0.008052
726.8309,-0.007737
728.6945,-0.007483
730.5582,-0.007592
732.4219,-0.007307
734.2856,-0.007096
736.1492,-0.007198
738.0129,-0.007047
739.8766,-0.006874
741.7402,-0.006739
743.6039,-0.006591
745.4676,-0.006568
747.3312,-0.006681
749.1949,-0.006657
751.0586,-0.006300
752.9222,-0.006185
754.7859,-0.006330
756.6496,-0.006344
758.5132,-0.006394
760.3769,-0.006486
762.2406,-0.006332
764.1043,-0.006097
765.9679,-0.006042
767.8316,-0.006035
769.6953,-0.006104
771.5589,-0.006151
773.4226,-0.005989
775.2863,-0.005973
777.1499,-0.006118
779.0136,-0.006106
780.8773,-0.006003
782.7409,-0.005849
784.6046,-0.005788
786.4683,-0.005914
788.3320,-0.006021
790.1956,-0.005943
792.0593,-0.005739
793.9230,-0.005668
795.7866,-0.005731
797.6503,-0.005886
799.5140,-0.005897
801.3776,-0.005773
803.2413,-0.005792
805.1050,-0.005798
806.9686,-0.005816
808.8323,-0.005942
810.6960,-0.005878
812.5596,-0.005761
814.4233,-0.005689
816.2870,-0.005722
818.1507,-0.005934
820.0143,-0.006080
821.8780,-0.006099
823.7417,-0.006105
825.6053,-0.006129
827.4690,-0.006157
829.3327,-0.006108
831.1963,-0.006012
833.0600,-0.005961
834.9237,-0.006067
836.7873,-0.006201
838.6510,-0.006225
840.5147,-0.006282
842.3784,-0.006349
844.2420,-0.006301
846.1057,-0.006257
847.9694,-0.006365
849.8330,-0.006499
851.6967,-0.006451
853.5604,-0.006400
855.4240,-0.006456
857.2877,-0.006472
859.1514,-0.006391
861.0150,-0.006319
862.8787,-0.006364
864.7424,-0.006471
866.6060,-0.006533
868.4697,-0.006511
870.3334,-0.006474
872.1971,-0.006504
874.0607,-0.006507
875.9244,-0.006504
877.7881,-0.006576
879.6517,-0.006621
881.5154,-0.006564
883.3791,-0.006510
885.2427,-0.006551
887.1064,-0.006567
888.9701,-0.006570
890.8337,-0.006636
892.6974,-0.006639
894.5611,-0.006578
896.4247,-0.006552
898.2884,-0.006582
900.1521,-0.006594
902.0158,-0.006540
903.8794,-0.006505
905.7431,-0.006463
907.6068,-0.006408
909.4704,-0.006355
911.3341,-0.006285
913.1978,-0.006270
915.0614,-0.006185
916.9251,-0.006096
918.7888,-0.006114
920.6524,-0.006127
922.5161,-0.006131
924.3798,-0.006085
926.2435,-0.005975
928.1071,-0.005933
929.9708,-0.005950
931.8345,-0.005897
933.6981,-0.005813
935.5618,-0.005752
937.4255,-0.005710
939.2891,-0.005722
941.1528,-0.005726
943.0165,-0.005658
944.8801,-0.005609
946.7438,-0.005598
948.6075,-0.005529
950.4711,-0.005480
952.3348,-0.005497
954.1985,-0.005486
956.0622,-0.005478
957.9258,-0.005483
959.7895,-0.005474
961.6532,-0.005490
963.5168,-0.005490
965.3805,-0.005406
967.2442,-0.005340
969.1078,-0.005343
970.9715,-0.005358
972.8352,-0.005351
974.6988,-0.005308
976.5625,-0.005283
978.4262,-0.005285
980.2899,-0.005281
982.1535,-0.005284
984.0172,-0.005253
985.8809,-0.005229
987.7445,-0.005239
989.6082,-0.005263
991.4719,-0.005267
993.3355,-0.005211
995.1992,-0.005159
997.0629,-0.005130
998.9265,-0.005115
1000.7902,-0.005108
1002.6539,-0.005111
1004.5175,-0.005120
1006.3812,-0.005151
1008.2449,-0.005147
1010.1086,-0.005143
1011.9722,-0.005158
1013.8359,-0.005088
1015.6996,-0.005030
1017.5632,-0.005037
1019.4269,-0.005038
1021.2906,-0.005058
1023.1542,-0.005084
1025.0179,-0.005034
1026.8816,-0.005018
1028.7452,-0.005043
1030.6089,-0.005038
1032.4726,-0.005063
1034.3362,-0.005076
1036.1999,-0.005069
1038.0636,-0.005091
1039.9273,-0.005109
1041.7909,-0.005114
1043.6546,-0.005157
1045.5183,-0.005178
1047.3819,-0.005165
1049.2456,-0.005107
1051.1093,-0.005136
1052.9729,-0.005232
1054.8366,-0.005238
1056.7003,-0.005216
1058.5639,-0.005245
1060.4276,-0.005224
1062.2913,-0.005152
1064.1550,-0.005141
1066.0186,-0.005186
1067.8823,-0.005179
1069.7460,-0.005141
1071.6096,-0.005154
1073.4733,-0.005136
1075.3370,-0.005097
1077.2006,-0.005077
1079.0643,-0.005073
1080.9280,-0.005065
1082.7916,-0.005082
1084.6553,-0.005092
1086.5190,-0.005055
1088.3826,-0.005039
1090.2463,-0.005057
1092.1100,-0.005058
1093.9737,-0.005051
1095.8373,-0.005022
1097.7010,-0.004998
1099.5647,-0.004994
1101.4283,-0.004979
1103.2920,-0.004962
1105.1557,-0.004947
1107.0193,-0.004908
1108.8830,-0.004911
1110.7467,-0.004915
1112.6103,-0.004932
1114.4740,-0.004925
1116.3377,-0.004887
1118.2014,-0.004907
1120.0650,-0.004919
1121.9287,-0.004895
1123.7924,-0.004900
1125.6560,-0.004891
1127.5197,-0.004866
1129.3834,-0.004865
1131.2470,-0.004881
1133.1107,-0.004900
1134.9744,-0.004901
1136.8380,-0.004897
1138.7017,-0.004907
1140.5654,-0.004934
1142.4290,-0.004938
1144.2927,-0.004911
1146.1564,-0.004890
1148.0201,-0.004918
1149.8837,-0.004985
1151.7474,-0.005017
1153.6111,-0.005017
1155.4747,-0.004977
1157.3384,-0.004954
1159.2021,-0.004985
1161.0657,-0.005025
1162.9294,-0.005051
1164.7931,-0.005053
1166.6567,-0.005042
1168.5204,-0.005052
1170.3841,-0.005076
1172.2477,-0.005096
1174.1114,-0.005106
1175.9751,-0.005126
1177.8388,-0.005107
1179.7024,-0.005131
1181.5661,-0.005159
1183.4298,-0.005135
1185.2934,-0.005145
1187.1571,-0.005222
1189.0208,-0.005241
1190.8844,-0.005232
1192.7481,-0.005204
1194.6118,-0.005165
1196.4754,-0.005160
1198.3391,-0.005197
1200.2028,-0.005227
1202.0665,-0.005213
1203.9301,-0.005208
1205.7938,-0.005260
1207.6575,-0.005299
1209.5211,-0.005279
1211.3848,-0.005259
1213.2485,-0.005276
1215.1121,-0.005288
1216.9758,-0.005282
1218.8395,-0.005310
1220.7031,-0.005353
1222.5668,-0.005345
1224.4305,-0.005329
1226.2941,-0.005317
1228.1578,-0.005320
1230.0215,-0.005325
1231.8852,-0.005367
1233.7488,-0.005422
1235.6125,-0.005431
1237.4762,-0.005414
1239.3398,-0.005401
1241.2035,-0.005427
1243.0672,-0.005452
1244.9308,-0.005401
1246.7945,-0.005423
1248.6582,-0.005503
1250.5218,-0.005513
1252.3855,-0.005518
1254.2492,-0.005531
1256.1129,-0.005555
1257.9765,-0.005565
1259.8402,-0.005554
1261.7039,-0.005542
1263.5675,-0.005540
1265.4312,-0.005545
1267.2949,-0.005517
1269.1585,-0.005503
1271.0222,-0.005559
1272.8859,-0.005607
1274.7495,-0.005596
1276.6132,-0.005566
1278.4769,-0.005517
1280.3405,-0.005491
1282.2042,-0.005478
1284.0679,-0.005467
1285.9316,-0.005450
1287.7952,-0.005482
1289.6589,-0.005470
1291.5226,-0.005433
1293.3862,-0.005432
1295.2499,-0.005454
1297.1136,-0.005428
1298.9772,-0.005410
1300.8409,-0.005442
1302.7046,-0.005435
1304.5682,-0.005431
1306.4319,-0.005430
1308.2956,-0.005405
1310.1592,-0.005363
1312.0229,-0.005356
1313.8866,-0.005372
1315.7503,-0.005330
1317.6139,-0.005342
1319.4776,-0.005409
1321.3413,-0.005416
1323.2049,-0.005398
1325.0686,-0.005380
1326.9323,-0.005389
1328.7959,-0.005436
1330.6596,-0.005426
1332.5233,-0.005367
1334.3869,-0.005283
1336.2506,-0.005278
1338.1143,-0.005391
1339.9780,-0.005544
1341.8416,-0.005493
1343.7053,-0.005452
1345.5690,-0.005459
1347.4326,-0.005392
1349.2963,-0.005365
1351.1600,-0.005345
1353.0236,-0.005364
1354.8873,-0.005443
1356.7510,-0.005401
1358.6146,-0.005268
1360.4783,-0.005315
1362.3420,-0.005672
1364.2056,-0.005684
1366.0693,-0.005420
1367.9330,-0.005424
1369.7967,-0.005398
1371.6603,-0.005285
1373.5240,-0.005499
1375.3877,-0.005668
1377.2513,-0.005543
1379.1150,-0.005543
1380.9787,-0.005493
1382.8423,-0.005356
1384.7060,-0.005252
1386.5697,-0.005567
1388.4333,-0.005707
1390.2970,-0.005371
1392.1607,-0.005152
1394.0244,-0.005428
1395.8880,-0.005589
1397.7517,-0.005552
1399.6154,-0.005743
1401.4790,-0.005434
1403.3427,-0.005362
1405.2064,-0.005660
1407.0700,-0.005654
1408.9337,-0.005508
1410.7974,-0.005530
1412.6610,-0.005467
1414.5247,-0.005260
1416.3884,-0.005080
1418.2520,-0.005782
1420.1157,-0.006243
1421.9794,-0.005730
1423.8431,-0.005766
1425.7067,-0.005696
1427.5704,-0.005542
1429.4341,-0.005732
1431.2977,-0.005691
1433.1614,-0.005290
1435.0251,-0.005405
1436.8887,-0.006252
1438.7524,-0.006058
1440.6161,-0.005725
1442.4797,-0.005629
1444.3434,-0.005468
1446.2071,-0.005475
1448.0707,-0.005856
1449.9344,-0.005742
1451.7981,-0.005338
1453.6618,-0.004776
1455.5254,-0.005124
1457.3891,-0.006641
1459.2528,-0.006393
1461.1164,-0.005565
1462.9801,-0.005370
1464.8438,-0.005896
1466.7074,-0.005797
1468.5711,-0.005212
1470.4348,-0.005034
1472.2984,-0.005850
1474.1621,-0.006146
1476.0258,-0.006030
1477.8895,-0.005785
1479.7531,-0.005632
1481.6168,-0.005735
1483.4805,-0.005551
1485.3441,-0.005292
1487.2078,-0.005388
1489.0715,-0.005941
1490.9351,-0.006133
1492.7988,-0.005497
1494.6625,-0.005297
1496.5261,-0.005833
1498.3898,-0.006131
1500.2535,-0.005730
1502.1171,-0.004978
1503.9808,-0.004489
1505.8445,-0.005526
1507.7082,-0.006817
1509.5718,-0.006208
1511.4355,-0.005674
1513.2992,-0.005125
1515.1628,-0.005035
1517.0265,-0.005371
1518.8902,-0.005124
1520.7538,-0.005654
1522.6175,-0.006067
1524.4812,-0.005763
1526.3448,-0.005825
1528.2085,-0.005676
1530.0722,-0.005180
1531.9359,-0.005161
1533.7995,-0.005625
1535.6632,-0.004918
1537.5269,-0.004496
1539.3905,-0.005571
1541.2542,-0.006471
1543.1179,-0.006189
1544.9815,-0.006051
1546.8452,-0.005505
1548.7089,-0.005367
1550.5725,-0.005337
1552.4362,-0.005015
1554.2999,-0.004785
1556.1635,-0.004448
1558.0272,-0.005931
1559.8909,-0.007667
1561.7546,-0.006306
1563.6182,-0.005600
1565.4819,-0.005426
1567.3456,-0.005312
1569.2092,-0.005837
1571.0729,-0.005772
1572.9366,-0.005197
1574.8002,-0.005496
1576.6639,-0.006378
1578.5276,-0.006063
1580.3912,-0.005765
1582.2549,-0.005742
1584.1186,-0.005734
1585.9822,-0.005685
1587.8459,-0.005703
1589.7096,-0.005650
1591.5733,-0.005638
1593.4369,-0.005663
1595.3006,-0.005678
1597.1643,-0.005644
1599.0279,-0.005591
1600.8916,-0.005634
1602.7553,-0.005676
1604.6189,-0.005656
1606.4826,-0.005719
1608.3463,-0.005766
1610.2099,-0.005751
1612.0736,-0.005540
1613.9373,-0.005223
1615.8010,-0.005863
1617.6646,-0.006458
1619.5283,-0.005858
1621.3920,-0.005572
1623.2556,-0.006086
1625.1193,-0.006148
1626.9830,-0.006094
1628.8466,-0.005986
1630.7103,-0.005511
1632.5740,-0.004975
1634.4376,-0.005642
1636.3013,-0.006892
1638.1650,-0.006340
1640.0286,-0.005656
1641.8923,-0.005188
1643.7560,-0.004841
1645.6197,-0.005309
1647.4833,-0.005784
1649.3470,-0.004868
1651.2107,-0.004753
1653.0743,-0.006793
1654.9380,-0.006827
1656.8017,-0.005704
1658.6653,-0.005149
1660.5290,-0.005168
1662.3927,-0.005531
1664.2563,-0.005351
1666.1200,-0.004847
1667.9837,-0.005010
1669.8474,-0.005600
1671.7110,-0.005379
1673.5747,-0.005285
1675.4384,-0.005736
1677.3020,-0.005424
1679.1657,-0.005043
1681.0294,-0.004692
1682.8930,-0.005421
1684.7567,-0.006775
1686.6204,-0.006252
1688.4840,-0.005720
1690.3477,-0.005585
1692.2114,-0.005225
1694.0750,-0.005097
1695.9387,-0.005705
1697.8024,-0.005837
1699.6661,-0.006604
1701.5297,-0.006865
1703.3934,-0.006364
1705.2571,-0.006400
1707.1207,-0.006446
1708.9844,-0.006063
1710.8481,-0.005716
1712.7117,-0.005600
1714.5754,-0.005822
1716.4391,-0.006538
1718.3027,-0.007119
1720.1664,-0.006627
1722.0301,-0.006237
1723.8937,-0.006138
1725.7574,-0.006031
1727.6211,-0.005835
1729.4848,-0.005747
1731.3484,-0.005694
1733.2121,-0.006390
1735.0758,-0.006789
1736.9394,-0.006231
1738.8031,-0.006001
1740.6668,-0.006130
1742.5304,-0.006118
1744.3941,-0.005943
1746.2578,-0.005878
1748.1214,-0.006090
1749.9851,-0.006456
1751.8488,-0.006527
1753.7125,-0.006275
1755.5761,-0.006212
1757.4398,-0.006152
1759.3035,-0.006144
1761.1671,-0.006312
1763.0308,-0.006348
1764.8945,-0.006047
1766.7581,-0.005907
1768.6218,-0.005905
1770.4855,-0.006115
1772.3491,-0.006617
1774.2128,-0.006700
1776.0765,-0.006374
1777.9401,-0.006187
1779.8038,-0.006165
1781.6675,-0.006161
1783.5312,-0.006250
1785.3948,-0.006210
1787.2585,-0.005917
1789.1222,-0.005724
1790.9858,-0.006035
1792.8495,-0.006358
1794.7132,-0.006282
1796.5768,-0.006102
1798.4405,-0.006099
1800.3042,-0.006284
1802.1678,-0.006382
1804.0315,-0.006269
1805.8952,-0.006088
1807.7589,-0.006053
1809.6225,-0.006245
1811.4862,-0.006389
1813.3499,-0.006334
1815.2135,-0.006325
1817.0772,-0.006311
1818.9409,-0.006049
1820.8045,-0.005784
1822.6682,-0.005722
1824.5319,-0.005883
1826.3955,-0.005931
1828.2592,-0.006012
1830.1229,-0.006248
1831.9865,-0.006224
1833.8502,-0.005839
1835.7139,-0.005722
1837.5776,-0.005889
1839.4412,-0.005823
1841.3049,-0.005744
1843.1686,-0.005971
1845.0322,-0.006104
1846.8959,-0.006010
1848.7596,-0.005867
1850.6232,-0.005832
1852.4869,-0.005860
1854.3506,-0.005813
1856.2142,-0.005778
1858.0779,-0.005848
1859.9416,-0.005837
1861.8052,-0.005628
1863.6689,-0.005477
1865.5326,-0.005339
1867.3963,-0.005488
1869.2599,-0.005739
1871.1236,-0.005840
1872.9873,-0.005749
1874.8509,-0.005681
1876.7146,-0.005666
1878.5783,-0.005646
1880.4419,-0.005543
1882.3056,-0.005392
1884.1693,-0.005300
1886.0329,-0.005374
1887.8966,-0.005514
1889.7603,-0.005562
1891.6240,-0.005538
1893.4876,-0.005413
1895.3513,-0.005330
1897.2150,-0.005282
1899.0786,-0.005280
1900.9423,-0.005341
1902.8060,-0.005281
1904.6696,-0.005232
1906.5333,-0.005311
1908.3970,-0.005424
1910.2606,-0.005173
1912.1243,-0.005061
1913.9880,-0.005225
1915.8516,-0.005196
1917.7153,-0.005142
1919.5790,-0.005184
1921.4427,-0.005339
1923.3063,-0.005413
1925.1700,-0.005105
1927.0337,-0.004943
1928.8973,-0.005055
1930.7610,-0.004913
1932.6247,-0.004746
1934.4883,-0.004873
1936.3520,-0.004931
1938.2157,-0.004691
1940.0793,-0.004800
1941.9430,-0.005042
1943.8067,-0.005277
1945.6704,-0.005115
1947.5340,-0.004653
1949.3977,-0.004480
1951.2614,-0.004229
1953.1250,-0.004245
1954.9887,-0.004348
1956.8524,-0.004382
1958.7160,-0.004343
1960.5797,-0.004111
1962.4434,-0.003634
1964.3070,-0.003258
1966.1707,-0.003404
1968.0344,-0.003474
1969.8980,-0.003408
1971.7617,-0.003227
1973.6254,-0.003152
1975.4891,-0.003284
1977.3527,-0.002509
1979.2164,-0.001054
1981.0801,-0.001142
1982.9437,-0.002236
1984.8074,-0.002521
1986.6711,-0.002133
1988.5347,-0.002170
1990.3984,-0.002851
1992.2621,-0.003213
1994.1257,-0.003225
1995.9894,-0.003294
1997.8531,-0.003659
1999.7167,-0.004111
2001.5804,-0.004265
2003.4441,-0.003543
2005.3078,-0.002824
2007.1714,-0.002465
2009.0351,-0.002302
2010.8988,-0.002615
2012.7624,-0.002960
2014.6261,-0.003193
2016.4898,-0.002976
2018.3534,-0.002412
2020.2171,-0.002006
2022.0808,-0.001951
2023.9444,-0.002248
2025.8081,-0.002578
2027.6718,-0.002418
2029.5355,-0.002135
2031.3991,-0.002169
2033.2628,-0.002038
2035.1265,-0.002045
2036.9901,-0.001804
2038.8538,-0.001575
2040.7175,-0.002403
2042.5811,-0.002941
2044.4448,-0.002489
2046.3085,-0.002172
2048.1721,-0.002023
2050.0358,-0.001751
2051.8995,-0.002159
2053.7631,-0.003012
2055.6268,-0.003409
2057.4905,-0.003884
2059.3542,-0.003922
2061.2178,-0.003726
2063.0815,-0.003602
2064.9452,-0.003734
2066.8088,-0.003778
2068.6725,-0.003725
2070.5362,-0.003768
2072.3998,-0.003561
2074.2635,-0.003426
2076.1272,-0.003558
2077.9908,-0.003532
2079.8545,-0.003695
2081.7182,-0.003931
2083.5819,-0.004203
2085.4455,-0.004132
2087.3092,-0.004053
2089.1729,-0.004079
2091.0365,-0.004426
2092.9002,-0.004934
2094.7639,-0.004733
2096.6275,-0.004069
2098.4912,-0.003958
2100.3549,-0.004110
2102.2185,-0.004221
2104.0822,-0.004322
2105.9459,-0.004275
2107.8095,-0.004299
2109.6732,-0.004416
2111.5369,-0.004252
2113.4006,-0.004266
2115.2642,-0.004389
2117.1279,-0.004530
2118.9916,-0.004633
2120.8552,-0.004689
2122.7189,-0.004878
2124.5826,-0.004949
2126.4462,-0.004956
2128.3099,-0.005139
2130.1736,-0.005261
2132.0372,-0.005348
2133.9009,-0.005089
2135.7646,-0.004577
2137.6282,-0.004335
2139.4919,-0.004353
2141.3556,-0.004425
2143.2193,-0.004482
2145.0829,-0.004469
2146.9466,-0.004166
2148.8103,-0.003520
2150.6739,-0.003088
2152.5376,-0.003069
2154.4013,-0.003513
2156.2649,-0.003375
2158.1286,-0.001964
2159.9923,-0.000480
2161.8559,-0.000241
2163.7196,-0.000676
2165.5833,-0.000905
2167.4470,-0.000789
2169.3106,-0.001458
2171.1743,-0.002454
2173.0380,-0.003265
2174.9016,-0.003114
2176.7653,-0.002349
2178.6290,-0.002055
2180.4926,-0.002028
2182.3563,-0.002016
2184.2200,-0.002371
2186.0836,-0.002311
2187.9473,-0.001881
2189.8110,-0.001822
2191.6746,-0.002130
2193.5383,-0.002645
2195.4020,-0.003005
2197.2657,-0.002805
2199.1293,-0.002903
2200.9930,-0.003090
2202.8567,-0.002981
2204.7203,-0.002774
2206.5840,-0.002538
2208.4477,-0.002524
2210.3113,-0.002912
2212.1750,-0.002904
2214.0387,-0.002492
2215.9023,-0.002738
2217.7660,-0.003160
2219.6297,-0.002976
2221.4934,-0.002721
2223.3570,-0.002709
2225.2207,-0.003189
2227.0844,-0.003454
2228.9480,-0.003194
2230.8117,-0.003155
2232.6754,-0.003382
2234.5390,-0.003129
2236.4027,-0.003042
2238.2664,-0.003177
2240.1300,-0.003380
2241.9937,-0.003488
2243.8574,-0.003437
2245.7210,-0.003421
2247.5847,-0.003528
2249.4484,-0.003544
2251.3121,-0.003714
2253.1757,-0.003910
2255.0394,-0.003973
2256.9031,-0.003791
2258.7667,-0.003648
2260.6304,-0.003640
2262.4941,-0.003724
2264.3577,-0.003677
2266.2214,-0.003682
2268.0851,-0.003734
2269.9487,-0.003795
2271.8124,-0.003865
2273.6761,-0.003835
2275.5397,-0.003710
2277.4034,-0.003834
2279.2671,-0.003868
2281.1308,-0.003535
2282.9944,-0.003172
2284.8581,-0.003119
2286.7218,-0.003397
2288.5854,-0.003775
2290.4491,-0.003730
2292.3128,-0.003694
2294.1764,-0.003814
2296.0401,-0.003758
2297.9038,-0.003883
2299.7674,-0.004221
2301.6311,-0.004208
2303.4948,-0.004032
2305.3585,-0.003961
2307.2221,-0.004080
2309.0858,-0.004165
2310.9495,-0.004019
2312.8131,-0.003743
2314.6768,-0.003612
2316.5405,-0.003543
2318.4041,-0.003542
2320.2678,-0.003355
2322.1315,-0.002840
2323.9951,-0.002742
2325.8588,-0.003630
2327.7225,-0.004394
2329.5861,-0.004636
2331.4498,-0.004716
2333.3135,-0.004795
2335.1772,-0.004783
2337.0408,-0.004884
2338.9045,-0.004901
2340.7682,-0.004935
2342.6318,-0.005310
2344.4955,-0.005698
2346.3592,-0.005506
2348.2228,-0.004919
2350.0865,-0.004265
2351.9502,-0.004019
2353.8138,-0.003986
2355.6775,-0.004027
2357.5412,-0.004159
2359.4049,-0.004452
2361.2685,-0.004825
2363.1322,-0.005098
2364.9959,-0.005595
2366.8595,-0.006034
2368.7232,-0.006154
2370.5869,-0.006375
2372.4505,-0.006581
2374.3142,-0.006572
2376.1779,-0.006248
2378.0415,-0.006044
2379.9052,-0.006060
2381.7689,-0.006012
2383.6325,-0.005895
2385.4962,-0.005842
2387.3599,-0.005765
2389.2236,-0.005734
2391.0872,-0.005772
2392.9509,-0.005754
2394.8146,-0.005673
2396.6782,-0.005679
2398.5419,-0.005683
2400.4056,-0.005665
2402.2692,-0.005708
2404.1329,-0.005736
2405.9966,-0.005571
2407.8602,-0.005368
2409.7239,-0.005280
2411.5876,-0.005342
2413.4512,-0.005355
2415.3149,-0.005382
2417.1786,-0.005409
2419.0423,-0.005319
2420.9059,-0.005109
2422.7696,-0.005118
2424.6333,-0.005222
2426.4969,-0.005134
2428.3606,-0.005153
2430.2243,-0.005333
2432.0879,-0.005344
2433.9516,-0.005305
2435.8153,-0.005254
2437.6789,-0.005206
2439.5426,-0.005138
2441.4063,-0.005059
2443.2700,-0.005082
2445.1336,-0.005269
2446.9973,-0.005267
2448.8610,-0.005083
2450.7246,-0.004978
2452.5883,-0.004943
2454.4520,-0.004926
2456.3156,-0.004988
2458.1793,-0.004991
2460.0430,-0.005031
2461.9066,-0.005134
2463.7703,-0.005235
2465.6340,-0.005203
2467.4976,-0.005203
2469.3613,-0.005174
2471.2250,-0.005133
2473.0887,-0.005128
2474.9523,-0.005197
2476.8160,-0.005254
2478.6797,-0.005273
2480.5433,-0.005226
2482.4070,-0.005217
2484.2707,-0.005190
2486.1343,-0.005142
2487.9980,-0.005180
2489.8617,-0.005231
2491.7253,-0.005280
2493.5890,-0.005371
2495.4527,-0.005177
2497.3164,-0.004926
2499.1800,-0.004921
2501.0437,-0.005101
2502.9074,-0.005168
2504.7710,-0.005215
2506.6347,-0.005245
2508.4984,-0.005239
2510.3620,-0.005199
2512.2257,-0.005185
2514.0894,-0.005107
2515.9530,-0.005069
2517.8167,-0.005090
2519.6804,-0.005056
2521.5440,-0.005005
2523.4077,-0.005094
2525.2714,-0.005124
2527.1351,-0.005053
