Wavenumber,Intensity
650.4205,0.027944
652.2841,0.028161
654.1478,0.026600
656.0115,0.025280
657.8751,0.025257
659.7388,0.025522
661.6025,0.025422
663.4661,0.024812
665.3298,0.023931
667.1935,0.024458
669.0571,0.026534
670.9208,0.025359
672.7845,0.024328
674.6481,0.023564
676.5118,0.022982
678.3755,0.022986
680.2392,0.023032
682.1028,0.022946
683.9665,0.022736
685.8302,0.022364
687.6938,0.022229
689.5575,0.022141
691.4212,0.021814
693.2848,0.021189
695.1485,0.020973
697.0122,0.021166
698.8758,0.020887
700.7395,0.020586
702.6032,0.020677
704.4669,0.020778
706.3305,0.020383
708.1942,0.019947
710.0579,0.019804
711.9215,0.019416
713.7852,0.019204
715.6489,0.019163
717.5125,0.019061
719.3762,0.019096
721.2399,0.019189
723.1035,0.019025
724.9672,0.018857
726.8309,0.018651
728.6945,0.018617
730.5582,0.018690
732.4219,0.018418
734.2856,0.018028
736.1492,0.017670
738.0129,0.017537
739.8766,0.017650
741.7402,0.017775
743.6039,0.017839
745.4676,0.017744
747.3312,0.017406
749.1949,0.016921
751.0586,0.016633
752.9222,0.016475
754.7859,0.016350
756.6496,0.016233
758.5132,0.016106
760.3769,0.016175
762.2406,0.016036
764.1043,0.015602
765.9679,0.015433
767.8316,0.015525
769.6953,0.015548
771.5589,0.015273
773.4226,0.014893
775.2863,0.014552
777.1499,0.014381
779.0136,0.014461
780.8773,0.014366
782.7409,0.014041
784.6046,0.013804
786.4683,0.013563
788.3320,0.013352
790.1956,0.013308
792.0593,0.013131
793.9230,0.013007
795.7866,0.012968
797.6503,0.012696
799.5140,0.012362
801.3776,0.012275
803.2413,0.012157
805.1050,0.011849
806.9686,0.011685
808.8323,0.011511
810.6960,0.011242
812.5596,0.011092
814.4233,0.010952
816.2870,0.010756
818.1507,0.010537
820.0143,0.010446
821.8780,0.010395
823.7417,0.010222
825.6053,0.010059
827.4690,0.009856
829.3327,0.009602
831.1963,0.009465
833.0600,0.009494
834.9237,0.009446
836.7873,0.009196
838.6510,0.008884
840.5147,0.008733
842.3784,0.008660
844.2420,0.008494
846.1057,0.008327
847.9694,0.008128
849.8330,0.007961
851.6967,0.007865
853.5604,0.007737
855.4240,0.007527
857.2877,0.007295
859.1514,0.007219
861.0150,0.007236
862.8787,0.007133
864.7424,0.006998
866.6060,0.006792
868.4697,0.006605
870.3334,0.006576
872.1971,0.006519
874.0607,0.006324
875.9244,0.006188
877.7881,0.006165
879.6517,0.006089
881.5154,0.006007
883.3791,0.005961
885.2427,0.005841
887.1064,0.005651
888.9701,0.005589
890.8337,0.005554
892.6974,0.005420
894.5611,0.005292
896.4247,0.005153
898.2884,0.005086
900.1521,0.005054
902.0158,0.004985
903.8794,0.004888
905.7431,0.004789
907.6068,0.004728
909.4704,0.004598
911.3341,0.004436
913.1978,0.004448
915.0614,0.004478
916.9251,0.004420
918.7888,0.004385
920.6524,0.004319
922.5161,0.004198
924.3798,0.004118
926.2435,0.004081
928.1071,0.004048
929.9708,0.004042
931.8345,0.003958
933.6981,0.003810
935.5618,0.003782
937.4255,0.003827
939.2891,0.003821
941.1528,0.003736
943.0165,0.003668
944.8801,0.003650
946.7438,0.003616
948.6075,0.003602
950.4711,0.003582
952.3348,0.003477
954.1985,0.003416
956.0622,0.003443
957.9258,0.003460
959.7895,0.003416
961.6532,0.003381
963.5168,0.003376
965.3805,0.003347
967.2442,0.003360
969.1078,0.003444
970.9715,0.003538
972.8352,0.003555
974.6988,0.003510
976.5625,0.003511
978.4262,0.003580
980.2899,0.003597
982.1535,0.003569
984.0172,0.003606
985.8809,0.003714
987.7445,0.003742
989.6082,0.003730
991.4719,0.003755
993.3355,0.003741
995.1992,0.003730
997.0629,0.003758
998.9265,0.003794
1000.7902,0.003824
1002.6539,0.003898
1004.5175,0.003946
1006.3812,0.003957
1008.2449,0.003978
1010.1086,0.004014
1011.9722,0.004089
1013.8359,0.004196
1015.6996,0.004269
1017.5632,0.004315
1019.4269,0.004402
1021.2906,0.004558
1023.1542,0.004667
1025.0179,0.004737
1026.8816,0.004824
1028.7452,0.004947
1030.6089,0.005038
1032.4726,0.005079
1034.3362,0.005137
1036.1999,0.005215
1038.0636,0.005296
1039.9273,0.005369
1041.7909,0.005359
1043.6546,0.005299
1045.5183,0.005328
1047.3819,0.005350
1049.2456,0.005273
1051.1093,0.005214
1052.9729,0.005179
1054.8366,0.005171
1056.7003,0.005205
1058.5639,0.005230
1060.4276,0.005270
1062.2913,0.005336
1064.1550,0.005404
1066.0186,0.005457
1067.8823,0.005492
1069.7460,0.005542
1071.6096,0.005621
1073.4733,0.005720
1075.3370,0.005815
1077.2006,0.005896
1079.0643,0.005952
1080.9280,0.005974
1082.7916,0.005971
1084.6553,0.005941
1086.5190,0.005875
1088.3826,0.005794
1090.2463,0.005682
1092.1100,0.005580
1093.9737,0.005507
1095.8373,0.005440
1097.7010,0.005350
1099.5647,0.005299
1101.4283,0.005235
1103.2920,0.005159
1105.1557,0.005067
1107.0193,0.004980
1108.8830,0.004977
1110.7467,0.004961
1112.6103,0.004851
1114.4740,0.004760
1116.3377,0.004682
1118.2014,0.004583
1120.0650,0.004498
1121.9287,0.004446
1123.7924,0.004328
1125.6560,0.004210
1127.5197,0.004125
1129.3834,0.004022
1131.2470,0.003967
1133.1107,0.003924
1134.9744,0.003836
1136.8380,0.003733
1138.7017,0.003650
1140.5654,0.003613
1142.4290,0.003591
1144.2927,0.003532
1146.1564,0.003486
1148.0201,0.003444
1149.8837,0.003373
1151.7474,0.003361
1153.6111,0.003350
1155.4747,0.003299
1157.3384,0.003240
1159.2021,0.003205
1161.0657,0.003175
1162.9294,0.003135
1164.7931,0.003125
1166.6567,0.003128
1168.5204,0.003105
1170.3841,0.003089
1172.2477,0.003058
1174.1114,0.003029
1175.9751,0.003040
1177.8388,0.003053
1179.7024,0.003037
1181.5661,0.003066
1183.4298,0.003098
1185.2934,0.003078
1187.1571,0.003069
1189.0208,0.003115
1190.8844,0.003171
1192.7481,0.003232
1194.6118,0.003257
1196.4754,0.003270
1198.3391,0.003252
1200.2028,0.003234
1202.0665,0.003263
1203.9301,0.003280
1205.7938,0.003311
1207.6575,0.003320
1209.5211,0.003282
1211.3848,0.003303
1213.2485,0.003349
1215.1121,0.003334
1216.9758,0.003299
1218.8395,0.003292
1220.7031,0.003291
1222.5668,0.003274
1224.4305,0.003262
1226.2941,0.003279
1228.1578,0.003285
1230.0215,0.003304
1231.8852,0.003333
1233.7488,0.003329
1235.6125,0.003303
1237.4762,0.003296
1239.3398,0.003328
1241.2035,0.003370
1243.0672,0.003365
1244.9308,0.003362
1246.7945,0.003352
1248.6582,0.003353
1250.5218,0.003346
1252.3855,0.003316
1254.2492,0.003295
1256.1129,0.003260
1257.9765,0.003262
1259.8402,0.003287
1261.7039,0.003309
1263.5675,0.003281
1265.4312,0.003224
1267.2949,0.003178
1269.1585,0.003153
1271.0222,0.003175
1272.8859,0.003201
1274.7495,0.003187
1276.6132,0.003130
1278.4769,0.003150
1280.3405,0.003154
1282.2042,0.003154
1284.0679,0.003165
1285.9316,0.003155
1287.7952,0.003156
1289.6589,0.003163
1291.5226,0.003183
1293.3862,0.003220
1295.2499,0.003215
1297.1136,0.003216
1298.9772,0.003231
1300.8409,0.003239
1302.7046,0.003264
1304.5682,0.003273
1306.4319,0.003316
1308.2956,0.003363
1310.1592,0.003338
1312.0229,0.003381
1313.8866,0.003459
1315.7503,0.003477
1317.6139,0.003498
1319.4776,0.003569
1321.3413,0.003584
1323.2049,0.003537
1325.0686,0.003542
1326.9323,0.003524
1328.7959,0.003494
1330.6596,0.003532
1332.5233,0.003558
1334.3869,0.003517
1336.2506,0.003528
1338.1143,0.003702
1339.9780,0.003971
1341.8416,0.003988
1343.7053,0.003888
1345.5690,0.003939
1347.4326,0.003966
1349.2963,0.004018
1351.1600,0.004044
1353.0236,0.004005
1354.8873,0.003978
1356.7510,0.003883
1358.6146,0.003714
1360.4783,0.003706
1362.3420,0.003992
1364.2056,0.004187
1366.0693,0.003914
1367.9330,0.003750
1369.7967,0.003712
1371.6603,0.003633
1373.5240,0.003857
1375.3877,0.004165
1377.2513,0.004070
1379.1150,0.004035
1380.9787,0.003987
1382.8423,0.003902
1384.7060,0.003880
1386.5697,0.004109
1388.4333,0.004432
1390.2970,0.004177
1392.1607,0.003938
1394.0244,0.004197
1395.8880,0.004623
1397.7517,0.004627
1399.6154,0.004749
1401.4790,0.004630
1403.3427,0.004548
1405.2064,0.004846
1407.0700,0.004876
1408.9337,0.004741
1410.7974,0.004726
1412.6610,0.004682
1414.5247,0.004472
1416.3884,0.004356
1418.2520,0.004799
1420.1157,0.005415
1421.9794,0.004917
1423.8431,0.004576
1425.7067,0.004459
1427.5704,0.004160
1429.4341,0.004219
1431.2977,0.004189
1433.1614,0.003851
1435.0251,0.003892
1436.8887,0.004830
1438.7524,0.004813
1440.6161,0.004150
1442.4797,0.004020
1444.3434,0.003968
1446.2071,0.004036
1448.0707,0.004342
1449.9344,0.004262
1451.7981,0.003749
1453.6618,0.003467
1455.5254,0.003865
1457.3891,0.005713
1459.2528,0.005547
1461.1164,0.004493
1462.9801,0.003993
1464.8438,0.004276
1466.7074,0.004165
1468.5711,0.003538
1470.4348,0.003264
1472.2984,0.003982
1474.1621,0.004548
1476.0258,0.004243
1477.8895,0.003939
1479.7531,0.003551
1481.6168,0.003390
1483.4805,0.003187
1485.3441,0.002859
1487.2078,0.003004
1489.0715,0.003583
1490.9351,0.003952
1492.7988,0.003440
1494.6625,0.002978
1496.5261,0.003484
1498.3898,0.003905
1500.2535,0.003540
1502.1171,0.002895
1503.9808,0.002314
1505.8445,0.003250
1507.7082,0.005527
1509.5718,0.004948
1511.4355,0.004111
1513.2992,0.003786
1515.1628,0.003611
1517.0265,0.004117
1518.8902,0.004405
1520.7538,0.004827
1522.6175,0.005663
1524.4812,0.005270
1526.3448,0.005238
1528.2085,0.005189
1530.0722,0.004884
1531.9359,0.004932
1533.7995,0.005512
1535.6632,0.005131
1537.5269,0.004440
1539.3905,0.005896
1541.2542,0.007876
1543.1179,0.007660
1544.9815,0.007280
1546.8452,0.006783
1548.7089,0.006416
1550.5725,0.006703
1552.4362,0.006337
1554.2999,0.006011
1556.1635,0.006170
1558.0272,0.007749
1559.8909,0.010329
1561.7546,0.008683
1563.6182,0.007456
1565.4819,0.007342
1567.3456,0.007247
1569.2092,0.007747
1571.0729,0.008087
1572.9366,0.007494
1574.8002,0.007760
1576.6639,0.009229
1578.5276,0.009157
1580.3912,0.008586
1582.2549,0.008753
1584.1186,0.008995
1585.9822,0.009264
1587.8459,0.009533
1589.7096,0.009824
1591.5733,0.010185
1593.4369,0.010600
1595.3006,0.011074
1597.1643,0.011413
1599.0279,0.011660
1600.8916,0.012083
1602.7553,0.012560
1604.6189,0.013080
1606.4826,0.013617
1608.3463,0.014288
1610.2099,0.014843
1612.0736,0.015099
1613.9373,0.015256
1615.8010,0.016768
1617.6646,0.018488
1619.5283,0.018028
1621.3920,0.017945
1623.2556,0.019187
1625.1193,0.019750
1626.9830,0.019803
1628.8466,0.020010
1630.7103,0.019518
1632.5740,0.019181
1634.4376,0.020569
1636.3013,0.022742
1638.1650,0.021735
1640.0286,0.020294
1641.8923,0.019389
1643.7560,0.018906
1645.6197,0.019537
1647.4833,0.019992
1649.3470,0.018423
1651.2107,0.017941
1653.0743,0.021188
1654.9380,0.020274
1656.8017,0.017537
1658.6653,0.016239
1660.5290,0.015702
1662.3927,0.015603
1664.2563,0.014913
1666.1200,0.013686
1667.9837,0.013374
1669.8474,0.013647
1671.7110,0.012882
1673.5747,0.011995
1675.4384,0.011798
1677.3020,0.010776
1679.1657,0.009393
1681.0294,0.008631
1682.8930,0.008658
1684.7567,0.009761
1686.6204,0.008613
1688.4840,0.007245
1690.3477,0.006400
1692.2114,0.005437
1694.0750,0.004497
1695.9387,0.004617
1697.8024,0.004404
1699.6661,0.004217
1701.5297,0.004802
1703.3934,0.003723
1705.2571,0.003234
1707.1207,0.003072
1708.9844,0.002299
1710.8481,0.001567
1712.7117,0.001062
1714.5754,0.001002
1716.4391,0.001510
1718.3027,0.002132
1720.1664,0.001698
1722.0301,0.000896
1723.8937,0.000496
1725.7574,0.000060
1727.6211,-0.000277
1729.4848,-0.000414
1731.3484,-0.000448
1733.2121,-0.000312
1735.0758,0.000579
1736.9394,0.000066
1738.8031,-0.000473
1740.6668,-0.000416
1742.5304,-0.000569
1744.3941,-0.000770
1746.2578,-0.000875
1748.1214,-0.000806
1749.9851,-0.000665
1751.8488,-0.000619
1753.7125,-0.000878
1755.5761,-0.001316
1757.4398,-0.001254
1759.3035,-0.001375
1761.1671,-0.001374
1763.0308,-0.001153
1764.8945,-0.001495
1766.7581,-0.001841
1768.6218,-0.001656
1770.4855,-0.001759
1772.3491,-0.001284
1774.2128,-0.000913
1776.0765,-0.001321
1777.9401,-0.001691
1779.8038,-0.001704
1781.6675,-0.001469
1783.5312,-0.001568
1785.3948,-0.001613
1787.2585,-0.001783
1789.1222,-0.002096
1790.9858,-0.001935
1792.8495,-0.001326
1794.7132,-0.001427
1796.5768,-0.001791
1798.4405,-0.001967
1800.3042,-0.001975
1802.1678,-0.001817
1804.0315,-0.001901
1805.8952,-0.002111
1807.7589,-0.002147
1809.6225,-0.002138
1811.4862,-0.002133
1813.3499,-0.002228
1815.2135,-0.002568
1817.0772,-0.002574
1818.9409,-0.002332
1820.8045,-0.002281
1822.6682,-0.002375
1824.5319,-0.002219
1826.3955,-0.001929
1828.2592,-0.002227
1830.1229,-0.002096
1831.9865,-0.001796
1833.8502,-0.001978
1835.7139,-0.002171
1837.5776,-0.002254
1839.4412,-0.002196
1841.3049,-0.002275
1843.1686,-0.002379
1845.0322,-0.001879
1846.8959,-0.001882
1848.7596,-0.002152
1850.6232,-0.002185
1852.4869,-0.002277
1854.3506,-0.002310
1856.2142,-0.002223
1858.0779,-0.002115
1859.9416,-0.002161
1861.8052,-0.002222
1863.6689,-0.002271
1865.5326,-0.002182
1867.3963,-0.002092
1869.2599,-0.001599
1871.1236,-0.001595
1872.9873,-0.001992
1874.8509,-0.002163
1876.7146,-0.002218
1878.5783,-0.002241
1880.4419,-0.002169
1882.3056,-0.002393
1884.1693,-0.002426
1886.0329,-0.002256
1887.8966,-0.002235
1889.7603,-0.002022
1891.6240,-0.001821
1893.4876,-0.002011
1895.3513,-0.001937
1897.2150,-0.001892
1899.0786,-0.001971
1900.9423,-0.002055
1902.8060,-0.001972
1904.6696,-0.001941
1906.5333,-0.001946
1908.3970,-0.001971
1910.2606,-0.001947
1912.1243,-0.001991
1913.9880,-0.002060
1915.8516,-0.002212
1917.7153,-0.002086
1919.5790,-0.001680
1921.4427,-0.001785
1923.3063,-0.002060
1925.1700,-0.002061
1927.0337,-0.001903
1928.8973,-0.001696
1930.7610,-0.001790
1932.6247,-0.001868
1934.4883,-0.001818
1936.3520,-0.001697
1938.2157,-0.001670
1940.0793,-0.001918
1941.9430,-0.001780
1943.8067,-0.001275
1945.6704,-0.001238
1947.5340,-0.001543
1949.3977,-0.001714
1951.2614,-0.001430
1953.1250,-0.001300
1954.9887,-0.001495
1956.8524,-0.001562
1958.7160,-0.001180
1960.5797,-0.001107
1962.4434,-0.000834
1964.3070,-0.000934
1966.1707,-0.001432
1968.0344,-0.000903
1969.8980,-0.000636
1971.7617,-0.000860
1973.6254,-0.000943
1975.4891,-0.000622
1977.3527,0.000710
1979.2164,0.001964
1981.0801,0.001893
1982.9437,0.001268
1984.8074,0.001135
1986.6711,0.001087
1988.5347,0.001009
1990.3984,0.000478
1992.2621,-0.000316
1994.1257,-0.000406
1995.9894,-0.000357
1997.8531,-0.000354
1999.7167,-0.000295
2001.5804,-0.000701
2003.4441,-0.001213
2005.3078,-0.000878
2007.1714,0.000121
2009.0351,0.000655
2010.8988,0.000311
2012.7624,-0.000242
2014.6261,-0.000425
2016.4898,-0.000404
2018.3534,0.000010
2020.2171,0.000736
2022.0808,0.000925
2023.9444,0.000471
2025.8081,0.000018
2027.6718,0.000389
2029.5355,0.000663
2031.3991,0.000293
2033.2628,0.000557
2035.1265,0.001482
2036.9901,0.001683
2038.8538,0.001578
2040.7175,0.001483
2042.5811,0.001214
2044.4448,0.001401
2046.3085,0.001204
2048.1721,0.001057
2050.0358,0.001710
2051.8995,0.001626
2053.7631,0.001076
2055.6268,0.001119
2057.4905,0.000927
2059.3542,0.000475
2061.2178,0.000125
2063.0815,0.000335
2064.9452,0.000629
2066.8088,0.000427
2068.6725,0.000231
2070.5362,0.000332
2072.3998,0.000563
2074.2635,0.000869
2076.1272,0.000790
2077.9908,0.000431
2079.8545,0.000456
2081.7182,0.000660
2083.5819,0.000538
2085.4455,0.000362
2087.3092,-0.000062
2089.1729,-0.000409
2091.0365,-0.000141
2092.9002,-0.000252
2094.7639,-0.000553
2096.6275,-0.000195
2098.4912,-0.000024
2100.3549,-0.000107
2102.2185,0.000042
2104.0822,0.000124
2105.9459,0.000184
2107.8095,0.000131
2109.6732,0.000254
2111.5369,0.000474
2113.4006,0.000392
2115.2642,0.000093
2117.1279,-0.000308
2118.9916,-0.000675
2120.8552,-0.000892
2122.7189,-0.000977
2124.5826,-0.001277
2126.4462,-0.001856
2128.3099,-0.002241
2130.1736,-0.002252
2132.0372,-0.002098
2133.9009,-0.002128
2135.7646,-0.001683
2137.6282,-0.001002
2139.4919,-0.001230
2141.3556,-0.001716
2143.2193,-0.001335
2145.0829,-0.000753
2146.9466,-0.000670
2148.8103,-0.000857
2150.6739,-0.001410
2152.5376,-0.001804
2154.4013,-0.001829
2156.2649,-0.001872
2158.1286,-0.000787
2159.9923,0.002243
2161.8559,0.003891
2163.7196,0.003227
2165.5833,0.002217
2167.4470,0.001627
2169.3106,0.001370
2171.1743,0.001123
2173.0380,0.000855
2174.9016,0.000357
2176.7653,-0.000198
2178.6290,-0.000027
2180.4926,0.000602
2182.3563,0.001095
2184.2200,0.001333
2186.0836,0.001386
2187.9473,0.001461
2189.8110,0.001343
2191.6746,0.000863
2193.5383,0.000413
2195.4020,0.000267
2197.2657,0.000107
2199.1293,0.000403
2200.9930,0.000773
2202.8567,0.000251
2204.7203,-0.000067
2206.5840,0.000040
2208.4477,0.000069
2210.3113,0.000036
2212.1750,0.000032
2214.0387,-0.000032
2215.9023,-0.000021
2217.7660,0.000166
2219.6297,0.000373
2221.4934,0.000303
2223.3570,-0.000041
2225.2207,-0.000085
2227.0844,0.000165
2228.9480,0.000082
2230.8117,-0.000308
2232.6754,-0.000429
2234.5390,-0.000258
2236.4027,-0.000045
2238.2664,-0.000039
2240.1300,-0.000211
2241.9937,-0.000347
2243.8574,-0.000629
2245.7210,-0.000628
2247.5847,-0.000524
2249.4484,-0.000740
2251.3121,-0.000762
2253.1757,-0.000562
2255.0394,-0.000373
2256.9031,-0.000155
2258.7667,-0.000289
2260.6304,-0.000572
2262.4941,-0.000500
2264.3577,-0.000490
2266.2214,-0.000419
2268.0851,-0.000269
2269.9487,-0.000361
2271.8124,-0.000307
2273.6761,-0.000204
2275.5397,-0.000239
2277.4034,-0.000311
2279.2671,-0.000365
2281.1308,-0.000288
2282.9944,-0.000091
2284.8581,0.000043
2286.7218,0.000079
2288.5854,-0.000007
2290.4491,-0.000289
2292.3128,-0.000533
2294.1764,-0.000601
2296.0401,-0.000616
2297.9038,-0.000671
2299.7674,-0.000781
2301.6311,-0.000862
2303.4948,-0.000869
2305.3585,-0.000826
2307.2221,-0.000774
2309.0858,-0.000722
2310.9495,-0.000750
2312.8131,-0.000876
2314.6768,-0.000874
2316.5405,-0.000611
2318.4041,-0.000289
2320.2678,-0.000099
2322.1315,0.000260
2323.9951,0.000413
2325.8588,-0.000313
2327.7225,-0.001112
2329.5861,-0.001357
2331.4498,-0.001306
2333.3135,-0.001107
2335.1772,-0.001200
2337.0408,-0.001396
2338.9045,-0.001140
2340.7682,-0.000902
2342.6318,-0.000902
2344.4955,-0.000908
2346.3592,-0.000981
2348.2228,-0.001548
2350.0865,-0.002407
2351.9502,-0.002635
2353.8138,-0.002053
2355.6775,-0.001652
2357.5412,-0.001623
2359.4049,-0.001348
2361.2685,-0.000904
2363.1322,-0.000686
2364.9959,-0.000809
2366.8595,-0.001146
2368.7232,-0.001222
2370.5869,-0.001164
2372.4505,-0.001329
2374.3142,-0.001507
2376.1779,-0.001866
2378.0415,-0.002332
2379.9052,-0.002503
2381.7689,-0.002565
2383.6325,-0.002769
2385.4962,-0.002945
2387.3599,-0.003020
2389.2236,-0.003064
2391.0872,-0.003122
2392.9509,-0.003205
2394.8146,-0.003119
2396.6782,-0.002990
2398.5419,-0.003030
2400.4056,-0.003108
2402.2692,-0.003215
2404.1329,-0.003219
2405.9966,-0.003108
2407.8602,-0.003020
2409.7239,-0.002968
2411.5876,-0.002981
2413.4512,-0.003037
2415.3149,-0.003010
2417.1786,-0.002939
2419.0423,-0.002899
2420.9059,-0.002908
2422.7696,-0.003045
2424.6333,-0.003055
2426.4969,-0.002870
2428.3606,-0.002800
2430.2243,-0.002790
2432.0879,-0.002868
2433.9516,-0.003008
2435.8153,-0.002872
2437.6789,-0.002553
2439.5426,-0.002475
2441.4063,-0.002647
2443.2700,-0.002669
2445.1336,-0.002471
2446.9973,-0.002507
2448.8610,-0.002553
2450.7246,-0.002390
2452.5883,-0.002373
2454.4520,-0.002429
2456.3156,-0.002467
2458.1793,-0.002640
2460.0430,-0.002758
2461.9066,-0.002735
2463.7703,-0.002681
2465.6340,-0.002600
2467.4976,-0.002651
2469.3613,-0.002993
2471.2250,-0.003187
2473.0887,-0.003015
2474.9523,-0.002903
2476.8160,-0.002918
2478.6797,-0.002859
2480.5433,-0.002834
2482.4070,-0.002779
2484.2707,-0.002689
2486.1343,-0.002749
2487.9980,-0.002790
2489.8617,-0.002718
2491.7253,-0.002755
2493.5890,-0.002856
2495.4527,-0.002873
2497.3164,-0.002953
2499.1800,-0.003012
2501.0437,-0.002992
2502.9074,-0.002989
2504.7710,-0.002974
2506.6347,-0.003053
2508.4984,-0.003156
2510.3620,-0.003035
2512.2257,-0.002911
2514.0894,-0.002911
2515.9530,-0.002942
2517.8167,-0.002982
2519.6804,-0.002920
2521.5440,-0.002972
2523.4077,-0.003058
2525.2714,-0.002919
2527.1351,-0.002810
2528.9987,-0.002833
2530.8624,-0.002935
2532.7261,-0.003081
2534.5897,-0.003098
2536.4534,-0.002941
2538.3171,-0.002743
2540.1807,-0.002751
2542.0444,-0.002852
2543.9081,-0.002891
2545.7717,-0.003018
2547.6354,-0.003027
2549.4991,-0.002789
2551.3627,-0.002711
2553.2264,-0.002765
2555.0901,-0.002707
2556.9538,-0.002716
2558.8174,-0.002780
2560.6811,-0.002864
2562.5448,-0.002894
2564.4084,-0.002842
2566.2721,-0.002805
2568.1358,-0.002855
2569.9994,-0.002857
2571.8631,-0.002728
2573.7268,-0.002673
2575.5904,-0.002681
2577.4541,-0.002664
2579.3178,-0.002714
2581.1815,-0.002711
2583.0451,-0.002633
2584.9088,-0.002754
2586.7725,-0.002834
2588.6361,-0.002758
