Wavenumber,Intensity
650.4205,0.034571
652.2841,0.035008
654.1478,0.034417
656.0115,0.033530
657.8751,0.032412
659.7388,0.031024
661.6025,0.030815
663.4661,0.031581
665.3298,0.031389
667.1935,0.031519
669.0571,0.032191
670.9208,0.031040
672.7845,0.030019
674.6481,0.030150
676.5118,0.030280
678.3755,0.029768
680.2392,0.029420
682.1028,0.028936
683.9665,0.028699
685.8302,0.028837
687.6938,0.028705
689.5575,0.028418
691.4212,0.028205
693.2848,0.027971
695.1485,0.027880
697.0122,0.027642
698.8758,0.027086
700.7395,0.026888
702.6032,0.026965
704.4669,0.026770
706.3305,0.026508
708.1942,0.026121
710.0579,0.025894
711.9215,0.026249
713.7852,0.026280
715.6489,0.025649
717.5125,0.025197
719.3762,0.025178
721.2399,0.025260
723.1035,0.025378
724.9672,0.025201
726.8309,0.024490
728.6945,0.023998
730.5582,0.024170
732.4219,0.024419
734.2856,0.024322
736.1492,0.024087
738.0129,0.023892
739.8766,0.023627
741.7402,0.023456
743.6039,0.023335
745.4676,0.023314
747.3312,0.023361
749.1949,0.022985
751.0586,0.022637
752.9222,0.022771
754.7859,0.022815
756.6496,0.022442
758.5132,0.022042
760.3769,0.021872
762.2406,0.021938
764.1043,0.021949
765.9679,0.021877
767.8316,0.021806
769.6953,0.021578
771.5589,0.021384
773.4226,0.021271
775.2863,0.021213
777.1499,0.021158
779.0136,0.021014
780.8773,0.020785
782.7409,0.020656
784.6046,0.020613
786.4683,0.020335
788.3320,0.020117
790.1956,0.020102
792.0593,0.020093
793.9230,0.019958
795.7866,0.019743
797.6503,0.019624
799.5140,0.019475
801.3776,0.019276
803.2413,0.019170
805.1050,0.019039
806.9686,0.018885
808.8323,0.018649
810.6960,0.018355
812.5596,0.018230
814.4233,0.018138
816.2870,0.017979
818.1507,0.017876
820.0143,0.017824
821.8780,0.017693
823.7417,0.017499
825.6053,0.017249
827.4690,0.016987
829.3327,0.016917
831.1963,0.016995
833.0600,0.016912
834.9237,0.016705
836.7873,0.016602
838.6510,0.016394
840.5147,0.016113
842.3784,0.016037
844.2420,0.015987
846.1057,0.015886
847.9694,0.015648
849.8330,0.015479
851.6967,0.015425
853.5604,0.015249
855.4240,0.015004
857.2877,0.014847
859.1514,0.014821
861.0150,0.014749
862.8787,0.014491
864.7424,0.014269
866.6060,0.014192
868.4697,0.014143
870.3334,0.014115
872.1971,0.014003
874.0607,0.013763
875.9244,0.013649
877.7881,0.013622
879.6517,0.013554
881.5154,0.013370
883.3791,0.013200
885.2427,0.013090
887.1064,0.012931
888.9701,0.012819
890.8337,0.012766
892.6974,0.012626
894.5611,0.012458
896.4247,0.012342
898.2884,0.012276
900.1521,0.012197
902.0158,0.012105
903.8794,0.011975
905.7431,0.011882
907.6068,0.011867
909.4704,0.011854
911.3341,0.011811
913.1978,0.011746
915.0614,0.011672
916.9251,0.011659
918.7888,0.011627
920.6524,0.011535
922.5161,0.011509
924.3798,0.011539
926.2435,0.011502
928.1071,0.011466
929.9708,0.011405
931.8345,0.011362
933.6981,0.011326
935.5618,0.011263
937.4255,0.011209
939.2891,0.011174
941.1528,0.011106
943.0165,0.011069
944.8801,0.011108
946.7438,0.011143
948.6075,0.011126
950.4711,0.011120
952.3348,0.011113
954.1985,0.011120
956.0622,0.011097
957.9258,0.010999
959.7895,0.010948
961.6532,0.010995
963.5168,0.011109
965.3805,0.011208
967.2442,0.011234
969.1078,0.011287
970.9715,0.011407
972.8352,0.011506
974.6988,0.011576
976.5625,0.011610
978.4262,0.011642
980.2899,0.011686
982.1535,0.011712
984.0172,0.011765
985.8809,0.011813
987.7445,0.011835
989.6082,0.011877
991.4719,0.011936
993.3355,0.011970
995.1992,0.012065
997.0629,0.012164
998.9265,0.012222
1000.7902,0.012336
1002.6539,0.012444
1004.5175,0.012515
1006.3812,0.012580
1008.2449,0.012645
1010.1086,0.012759
1011.9722,0.012851
1013.8359,0.012937
1015.6996,0.013051
1017.5632,0.013210
1019.4269,0.013366
1021.2906,0.013503
1023.1542,0.013607
1025.0179,0.013747
1026.8816,0.013891
1028.7452,0.014008
1030.6089,0.014136
1032.4726,0.014334
1034.3362,0.014547
1036.1999,0.014712
1038.0636,0.014876
1039.9273,0.015079
1041.7909,0.015253
1043.6546,0.015425
1045.5183,0.015528
1047.3819,0.015512
1049.2456,0.015403
1051.1093,0.015264
1052.9729,0.015101
1054.8366,0.015021
1056.7003,0.014991
1058.5639,0.014954
1060.4276,0.014914
1062.2913,0.014936
1064.1550,0.015011
1066.0186,0.015122
1067.8823,0.015218
1069.7460,0.015292
1071.6096,0.015397
1073.4733,0.015525
1075.3370,0.015683
1077.2006,0.015858
1079.0643,0.015961
1080.9280,0.015998
1082.7916,0.016002
1084.6553,0.015978
1086.5190,0.015907
1088.3826,0.015850
1090.2463,0.015791
1092.1100,0.015678
1093.9737,0.015533
1095.8373,0.015461
1097.7010,0.015399
1099.5647,0.015305
1101.4283,0.015219
1103.2920,0.015154
1105.1557,0.015083
1107.0193,0.014987
1108.8830,0.014873
1110.7467,0.014780
1112.6103,0.014686
1114.4740,0.014614
1116.3377,0.014520
1118.2014,0.014411
1120.0650,0.014310
1121.9287,0.014216
1123.7924,0.014049
1125.6560,0.013858
1127.5197,0.013699
1129.3834,0.013562
1131.2470,0.013415
1133.1107,0.013267
1134.9744,0.013119
1136.8380,0.013004
1138.7017,0.012943
1140.5654,0.012867
1142.4290,0.012769
1144.2927,0.012685
1146.1564,0.012569
1148.0201,0.012431
1149.8837,0.012309
1151.7474,0.012266
1153.6111,0.012219
1155.4747,0.012150
1157.3384,0.012088
1159.2021,0.012048
1161.0657,0.012008
1162.9294,0.011960
1164.7931,0.011906
1166.6567,0.011890
1168.5204,0.011868
1170.3841,0.011830
1172.2477,0.011819
1174.1114,0.011795
1175.9751,0.011791
1177.8388,0.011800
1179.7024,0.011810
1181.5661,0.011790
1183.4298,0.011778
1185.2934,0.011852
1187.1571,0.011893
1189.0208,0.011914
1190.8844,0.011961
1192.7481,0.011979
1194.6118,0.011985
1196.4754,0.012032
1198.3391,0.012057
1200.2028,0.012082
1202.0665,0.012114
1203.9301,0.012156
1205.7938,0.012162
1207.6575,0.012181
1209.5211,0.012243
1211.3848,0.012304
1213.2485,0.012337
1215.1121,0.012331
1216.9758,0.012282
1218.8395,0.012275
1220.7031,0.012262
1222.5668,0.012220
1224.4305,0.012172
1226.2941,0.012186
1228.1578,0.012173
1230.0215,0.012137
1231.8852,0.012113
1233.7488,0.012087
1235.6125,0.012032
1237.4762,0.012024
1239.3398,0.012041
1241.2035,0.012015
1243.0672,0.011997
1244.9308,0.011998
1246.7945,0.011974
1248.6582,0.011952
1250.5218,0.011925
1252.3855,0.011919
1254.2492,0.011904
1256.1129,0.011861
1257.9765,0.011765
1259.8402,0.011718
1261.7039,0.011698
1263.5675,0.011687
1265.4312,0.011661
1267.2949,0.011618
1269.1585,0.011597
1271.0222,0.011595
1272.8859,0.011621
1274.7495,0.011622
1276.6132,0.011620
1278.4769,0.011661
1280.3405,0.011681
1282.2042,0.011680
1284.0679,0.011670
1285.9316,0.011663
1287.7952,0.011754
1289.6589,0.011881
1291.5226,0.011871
1293.3862,0.011900
1295.2499,0.011961
1297.1136,0.012028
1298.9772,0.012070
1300.8409,0.012133
1302.7046,0.012194
1304.5682,0.012221
1306.4319,0.012254
1308.2956,0.012248
1310.1592,0.012242
1312.0229,0.012320
1313.8866,0.012380
1315.7503,0.012356
1317.6139,0.012420
1319.4776,0.012526
1321.3413,0.012515
1323.2049,0.012466
1325.0686,0.012509
1326.9323,0.012569
1328.7959,0.012595
1330.6596,0.012604
1332.5233,0.012630
1334.3869,0.012590
1336.2506,0.012583
1338.1143,0.012846
1339.9780,0.013168
1341.8416,0.013203
1343.7053,0.013101
1345.5690,0.013193
1347.4326,0.013322
1349.2963,0.013394
1351.1600,0.013340
1353.0236,0.013293
1354.8873,0.013241
1356.7510,0.013118
1358.6146,0.012921
1360.4783,0.012937
1362.3420,0.013209
1364.2056,0.013306
1366.0693,0.013046
1367.9330,0.013030
1369.7967,0.013093
1371.6603,0.013041
1373.5240,0.013286
1375.3877,0.013692
1377.2513,0.013674
1379.1150,0.013719
1380.9787,0.013704
1382.8423,0.013634
1384.7060,0.013670
1386.5697,0.014053
1388.4333,0.014367
1390.2970,0.013999
1392.1607,0.013788
1394.0244,0.014182
1395.8880,0.014714
1397.7517,0.014674
1399.6154,0.014910
1401.4790,0.014823
1403.3427,0.014685
1405.2064,0.015064
1407.0700,0.015144
1408.9337,0.015015
1410.7974,0.014989
1412.6610,0.014824
1414.5247,0.014443
1416.3884,0.014342
1418.2520,0.014733
1420.1157,0.015048
1421.9794,0.014294
1423.8431,0.013940
1425.7067,0.013875
1427.5704,0.013552
1429.4341,0.013535
1431.2977,0.013367
1433.1614,0.012988
1435.0251,0.013012
1436.8887,0.013917
1438.7524,0.013807
1440.6161,0.013231
1442.4797,0.013138
1444.3434,0.013012
1446.2071,0.013061
1448.0707,0.013334
1449.9344,0.013196
1451.7981,0.012638
1453.6618,0.012429
1455.5254,0.012830
1457.3891,0.014478
1459.2528,0.013993
1461.1164,0.013065
1462.9801,0.012723
1464.8438,0.013194
1466.7074,0.013005
1468.5711,0.012369
1470.4348,0.012059
1472.2984,0.012776
1474.1621,0.013214
1476.0258,0.012869
1477.8895,0.012639
1479.7531,0.012300
1481.6168,0.012216
1483.4805,0.011991
1485.3441,0.011745
1487.2078,0.012024
1489.0715,0.012584
1490.9351,0.012857
1492.7988,0.012287
1494.6625,0.012017
1496.5261,0.012702
1498.3898,0.013065
1500.2535,0.012661
1502.1171,0.012035
1503.9808,0.011671
1505.8445,0.012994
1507.7082,0.014882
1509.5718,0.014072
1511.4355,0.013493
1513.2992,0.013410
1515.1628,0.013296
1517.0265,0.013796
1518.8902,0.013945
1520.7538,0.014504
1522.6175,0.015345
1524.4812,0.014965
1526.3448,0.015264
1528.2085,0.015352
1530.0722,0.015146
1531.9359,0.015242
1533.7995,0.015908
1535.6632,0.015381
1537.5269,0.014817
1539.3905,0.016577
1541.2542,0.018376
1543.1179,0.018062
1544.9815,0.017830
1546.8452,0.017530
1548.7089,0.017294
1550.5725,0.017654
1552.4362,0.017229
1554.2999,0.017013
1556.1635,0.016988
1558.0272,0.018605
1559.8909,0.020907
1561.7546,0.019116
1563.6182,0.017925
1565.4819,0.017966
1567.3456,0.018037
1569.2092,0.018567
1571.0729,0.018694
1572.9366,0.018007
1574.8002,0.018329
1576.6639,0.019845
1578.5276,0.019721
1580.3912,0.019193
1582.2549,0.019325
1584.1186,0.019533
1585.9822,0.019794
1587.8459,0.019922
1589.7096,0.020103
1591.5733,0.020366
1593.4369,0.020720
1595.3006,0.020994
1597.1643,0.021200
1599.0279,0.021375
1600.8916,0.021738
1602.7553,0.022061
1604.6189,0.022408
1606.4826,0.022773
1608.3463,0.023245
1610.2099,0.023466
1612.0736,0.023716
1613.9373,0.024187
1615.8010,0.025431
1617.6646,0.026625
1619.5283,0.026393
1621.3920,0.026484
1623.2556,0.027585
1625.1193,0.028234
1626.9830,0.028341
1628.8466,0.028539
1630.7103,0.028364
1632.5740,0.028263
1634.4376,0.029054
1636.3013,0.030476
1638.1650,0.029806
1640.0286,0.028835
1641.8923,0.028300
1643.7560,0.028085
1645.6197,0.028304
1647.4833,0.028352
1649.3470,0.027358
1651.2107,0.027032
1653.0743,0.029064
1654.9380,0.028322
1656.8017,0.026358
1658.6653,0.025418
1660.5290,0.024912
1662.3927,0.024578
1664.2563,0.023800
1666.1200,0.022669
1667.9837,0.022066
1669.8474,0.021873
1671.7110,0.021101
1673.5747,0.020122
1675.4384,0.019704
1677.3020,0.018586
1679.1657,0.017323
1681.0294,0.016576
1682.8930,0.016245
1684.7567,0.016641
1686.6204,0.015349
1688.4840,0.014121
1690.3477,0.013226
1692.2114,0.012406
1694.0750,0.011407
1695.9387,0.011395
1697.8024,0.010907
1699.6661,0.010727
1701.5297,0.010797
1703.3934,0.009748
1705.2571,0.009370
1707.1207,0.009142
1708.9844,0.008580
1710.8481,0.007980
1712.7117,0.007505
1714.5754,0.007376
1716.4391,0.007649
1718.3027,0.008044
1720.1664,0.007582
1722.0301,0.007000
1723.8937,0.006831
1725.7574,0.006586
1727.6211,0.006161
1729.4848,0.006018
1731.3484,0.005920
1733.2121,0.005998
1735.0758,0.006686
1736.9394,0.005965
1738.8031,0.005694
1740.6668,0.005882
1742.5304,0.005790
1744.3941,0.005580
1746.2578,0.005366
1748.1214,0.005366
1749.9851,0.005553
1751.8488,0.005638
1753.7125,0.005307
1755.5761,0.005060
1757.4398,0.005211
1759.3035,0.005040
1761.1671,0.005017
1763.0308,0.005042
1764.8945,0.004757
1766.7581,0.004492
1768.6218,0.004680
1770.4855,0.004649
1772.3491,0.004957
1774.2128,0.004949
1776.0765,0.004739
1777.9401,0.004519
1779.8038,0.004647
1781.6675,0.004767
1783.5312,0.004629
1785.3948,0.004528
1787.2585,0.004476
1789.1222,0.004385
1790.9858,0.004453
1792.8495,0.004820
1794.7132,0.004710
1796.5768,0.004494
1798.4405,0.004449
1800.3042,0.004507
1802.1678,0.004581
1804.0315,0.004483
1805.8952,0.004341
1807.7589,0.004181
1809.6225,0.004185
1811.4862,0.004406
1813.3499,0.004217
1815.2135,0.003827
1817.0772,0.003810
1818.9409,0.004111
1820.8045,0.004277
1822.6682,0.004059
1824.5319,0.004130
1826.3955,0.004394
1828.2592,0.004340
1830.1229,0.004495
1831.9865,0.004408
1833.8502,0.004200
1835.7139,0.004158
1837.5776,0.004127
1839.4412,0.004028
1841.3049,0.003993
1843.1686,0.004265
1845.0322,0.004698
1846.8959,0.004492
1848.7596,0.004284
1850.6232,0.004216
1852.4869,0.004248
1854.3506,0.004315
1856.2142,0.004343
1858.0779,0.004266
1859.9416,0.004158
1861.8052,0.003989
1863.6689,0.003983
1865.5326,0.004045
1867.3963,0.004228
1869.2599,0.004524
1871.1236,0.004410
1872.9873,0.004238
1874.8509,0.004227
1876.7146,0.004190
1878.5783,0.004272
1880.4419,0.004410
1882.3056,0.004267
1884.1693,0.004014
1886.0329,0.003910
1887.8966,0.003995
1889.7603,0.004126
1891.6240,0.004231
1893.4876,0.004368
1895.3513,0.004261
1897.2150,0.004146
1899.0786,0.004200
1900.9423,0.004124
1902.8060,0.004075
1904.6696,0.004079
1906.5333,0.004221
1908.3970,0.004348
1910.2606,0.004330
1912.1243,0.004233
1913.9880,0.004159
1915.8516,0.004072
1917.7153,0.004160
1919.5790,0.004133
1921.4427,0.003823
1923.3063,0.003805
1925.1700,0.003838
1927.0337,0.003765
1928.8973,0.003760
1930.7610,0.003732
1932.6247,0.003765
1934.4883,0.003874
1936.3520,0.004099
1938.2157,0.004166
1940.0793,0.003974
1941.9430,0.004083
1943.8067,0.004110
1945.6704,0.004125
1947.5340,0.004277
1949.3977,0.004199
1951.2614,0.004133
1953.1250,0.003954
1954.9887,0.003805
1956.8524,0.003841
1958.7160,0.004244
1960.5797,0.004438
1962.4434,0.004085
1964.3070,0.003975
1966.1707,0.003916
1968.0344,0.003586
1969.8980,0.003770
1971.7617,0.004415
1973.6254,0.004721
1975.4891,0.004601
1977.3527,0.005430
1979.2164,0.006473
1981.0801,0.006039
1982.9437,0.005457
1984.8074,0.005747
1986.6711,0.005798
1988.5347,0.005282
1990.3984,0.005115
1992.2621,0.005089
1994.1257,0.005241
1995.9894,0.005382
1997.8531,0.004797
1999.7167,0.004277
2001.5804,0.004032
2003.4441,0.003806
2005.3078,0.003916
2007.1714,0.004417
2009.0351,0.005186
2010.8988,0.005584
2012.7624,0.005444
2014.6261,0.005133
2016.4898,0.004979
2018.3534,0.005202
2020.2171,0.005557
2022.0808,0.005506
2023.9444,0.005115
2025.8081,0.005429
2027.6718,0.005935
2029.5355,0.005726
2031.3991,0.005342
2033.2628,0.005262
2035.1265,0.005792
2036.9901,0.006714
2038.8538,0.006870
2040.7175,0.006269
2042.5811,0.006068
2044.4448,0.006591
2046.3085,0.006927
2048.1721,0.006961
2050.0358,0.007069
2051.8995,0.006823
2053.7631,0.006447
2055.6268,0.006265
2057.4905,0.005797
2059.3542,0.005603
2061.2178,0.005849
2063.0815,0.005796
2064.9452,0.005832
2066.8088,0.006200
2068.6725,0.006381
2070.5362,0.006187
2072.3998,0.005898
2074.2635,0.005988
2076.1272,0.006238
2077.9908,0.006228
2079.8545,0.006161
2081.7182,0.006070
2083.5819,0.006000
2085.4455,0.006101
2087.3092,0.006014
2089.1729,0.005517
2091.0365,0.005136
2092.9002,0.005169
2094.7639,0.005569
2096.6275,0.005666
2098.4912,0.005275
2100.3549,0.005060
2102.2185,0.005291
2104.0822,0.005691
2105.9459,0.005745
2107.8095,0.005665
2109.6732,0.005651
2111.5369,0.005606
2113.4006,0.005716
2115.2642,0.005688
2117.1279,0.005202
2118.9916,0.004785
2120.8552,0.004887
2122.7189,0.004977
2124.5826,0.004551
2126.4462,0.004284
2128.3099,0.004174
2130.1736,0.003934
2132.0372,0.003837
2133.9009,0.003789
2135.7646,0.003941
2137.6282,0.004317
2139.4919,0.004445
2141.3556,0.004229
2143.2193,0.004024
2145.0829,0.004124
2146.9466,0.004284
2148.8103,0.004140
2150.6739,0.003717
2152.5376,0.003016
2154.4013,0.002718
2156.2649,0.003377
2158.1286,0.004615
2159.9923,0.006223
2161.8559,0.007199
2163.7196,0.007253
2165.5833,0.007232
2167.4470,0.006742
2169.3106,0.006103
2171.1743,0.005941
2173.0380,0.005690
2174.9016,0.005403
2176.7653,0.005926
2178.6290,0.006335
2180.4926,0.005853
2182.3563,0.005667
2184.2200,0.006191
2186.0836,0.006262
2187.9473,0.006212
2189.8110,0.006158
2191.6746,0.005858
2193.5383,0.005907
2195.4020,0.006112
2197.2657,0.005779
2199.1293,0.005910
2200.9930,0.006289
2202.8567,0.006151
2204.7203,0.006034
2206.5840,0.005861
2208.4477,0.005666
2210.3113,0.005612
2212.1750,0.005585
2214.0387,0.005400
2215.9023,0.005154
2217.7660,0.005062
2219.6297,0.004892
2221.4934,0.005336
2223.3570,0.005602
2225.2207,0.005323
2227.0844,0.005256
2228.9480,0.005459
2230.8117,0.005739
2232.6754,0.005878
2234.5390,0.005621
2236.4027,0.005402
2238.2664,0.005514
2240.1300,0.005505
2241.9937,0.005226
2243.8574,0.005092
2245.7210,0.005379
2247.5847,0.005513
2249.4484,0.005033
2251.3121,0.004923
2253.1757,0.005241
2255.0394,0.005395
2256.9031,0.005353
2258.7667,0.005251
2260.6304,0.005217
2262.4941,0.005222
2264.3577,0.005343
2266.2214,0.005437
2268.0851,0.005393
2269.9487,0.005349
2271.8124,0.005319
2273.6761,0.005533
2275.5397,0.005626
2277.4034,0.005617
2279.2671,0.005738
2281.1308,0.005703
2282.9944,0.005664
2284.8581,0.005852
2286.7218,0.005852
2288.5854,0.005742
2290.4491,0.005558
2292.3128,0.005305
2294.1764,0.005256
2296.0401,0.005182
2297.9038,0.005127
2299.7674,0.005137
2301.6311,0.005160
2303.4948,0.005207
2305.3585,0.005265
2307.2221,0.005341
2309.0858,0.005405
2310.9495,0.005511
2312.8131,0.005686
2314.6768,0.005817
2316.5405,0.005963
2318.4041,0.006072
2320.2678,0.006344
2322.1315,0.006926
2323.9951,0.007099
2325.8588,0.006421
2327.7225,0.005517
2329.5861,0.005346
2331.4498,0.005484
2333.3135,0.005607
2335.1772,0.005768
2337.0408,0.005942
2338.9045,0.005872
2340.7682,0.005941
2342.6318,0.006066
2344.4955,0.005846
2346.3592,0.005346
2348.2228,0.004860
2350.0865,0.004422
2351.9502,0.004559
2353.8138,0.005413
2355.6775,0.005850
2357.5412,0.005942
2359.4049,0.006236
2361.2685,0.006329
2363.1322,0.006032
2364.9959,0.006165
2366.8595,0.006237
2368.7232,0.005887
2370.5869,0.005602
2372.4505,0.005221
2374.3142,0.004856
2376.1779,0.004722
2378.0415,0.004534
2379.9052,0.004107
2381.7689,0.003686
2383.6325,0.003392
2385.4962,0.003182
2387.3599,0.003089
2389.2236,0.003117
2391.0872,0.003199
2392.9509,0.003256
2394.8146,0.003161
2396.6782,0.003055
2398.5419,0.003023
2400.4056,0.003047
2402.2692,0.003180
2404.1329,0.003152
2405.9966,0.003022
2407.8602,0.003117
2409.7239,0.003247
2411.5876,0.003224
2413.4512,0.003114
2415.3149,0.002996
2417.1786,0.003181
2419.0423,0.003416
2420.9059,0.003267
2422.7696,0.003216
2424.6333,0.003205
2426.4969,0.003196
2428.3606,0.003302
2430.2243,0.003282
2432.0879,0.003386
2433.9516,0.003379
2435.8153,0.003379
2437.6789,0.003590
2439.5426,0.003606
2441.4063,0.003476
2443.2700,0.003466
2445.1336,0.003467
2446.9973,0.003495
2448.8610,0.003496
2450.7246,0.003428
2452.5883,0.003502
2454.4520,0.003633
2456.3156,0.003616
2458.1793,0.003494
2460.0430,0.003380
2461.9066,0.003262
2463.7703,0.003219
2465.6340,0.003342
2467.4976,0.003418
2469.3613,0.003393
2471.2250,0.003430
2473.0887,0.003316
2474.9523,0.003164
2476.8160,0.003163
2478.6797,0.003206
2480.5433,0.003263
2482.4070,0.003210
2484.2707,0.003202
2486.1343,0.003206
2487.9980,0.003211
2489.8617,0.003219
2491.7253,0.003236
2493.5890,0.003306
2495.4527,0.003384
2497.3164,0.003423
2499.1800,0.003409
2501.0437,0.003295
2502.9074,0.003027
2504.7710,0.003012
2506.6347,0.003251
2508.4984,0.003244
2510.3620,0.003253
2512.2257,0.003379
2514.0894,0.003308
2515.9530,0.003068
2517.8167,0.002986
2519.6804,0.003064
2521.5440,0.003144
2523.4077,0.003204
2525.2714,0.003214
2527.1351,0.003102
2528.9987,0.003053
2530.8624,0.003122
2532.7261,0.003168
2534.5897,0.003215
2536.4534,0.003173
2538.3171,0.003059
2540.1807,0.003063
2542.0444,0.003260
2543.9081,0.003361
2545.7717,0.003240
2547.6354,0.003227
2549.4991,0.003251
2551.3627,0.003283
2553.2264,0.003310
2555.0901,0.003257
2556.9538,0.003259
2558.8174,0.003348
2560.6811,0.003312
2562.5448,0.003243
2564.4084,0.003382
2566.2721,0.003419
2568.1358,0.003435
2569.9994,0.003435
2571.8631,0.003546
2573.7268,0.003588
2575.5904,0.003404
2577.4541,0.003435
2579.3178,0.003498
2581.1815,0.003316
2583.0451,0.003291
2584.9088,0.003328
2586.7725,0.003408
2588.6361,0.003506
2590.4998,0.003451
2592.3635,0.003364
2594.2271,0.003392
2596.0908,0.003390
2597.9545,0.003429
2599.8181,0.003511
2601.6818,0.003532
2603.5455,0.003468
2605.4091,0.003451
2607.2728,0.003519
2609.1365,0.003673
2611.0002,0.003675
2612.8638,0.003582
2614.7275,0.003604
2616.5912,0.003652
2618.4548,0.003602
2620.3185,0.003552
2622.1822,0.003574
2624.0458,0.003616
2625.9095,0.003650
