Wavenumber,Intensity
650.4205,0.074226
652.2841,0.079007
654.1478,0.078537
656.0115,0.071655
657.8751,0.068385
659.7388,0.071353
661.6025,0.073323
663.4661,0.070907
665.3298,0.069330
667.1935,0.071557
669.0571,0.074091
670.9208,0.070781
672.7845,0.069422
674.6481,0.070172
676.5118,0.068478
678.3755,0.067313
680.2392,0.067648
682.1028,0.068412
683.9665,0.068059
685.8302,0.065575
687.6938,0.063887
689.5575,0.063431
691.4212,0.062341
693.2848,0.062616
695.1485,0.063419
697.0122,0.063428
698.8758,0.062680
700.7395,0.061963
702.6032,0.062302
704.4669,0.061834
706.3305,0.059898
708.1942,0.057760
710.0579,0.056487
711.9215,0.055051
713.7852,0.054756
715.6489,0.055875
717.5125,0.056018
719.3762,0.054172
721.2399,0.052862
723.1035,0.053277
724.9672,0.053070
726.8309,0.052185
728.6945,0.051390
730.5582,0.051308
732.4219,0.051308
734.2856,0.050630
736.1492,0.050251
738.0129,0.049940
739.8766,0.049786
741.7402,0.049845
743.6039,0.049869
745.4676,0.049894
747.3312,0.048803
749.1949,0.047793
751.0586,0.047569
752.9222,0.046920
754.7859,0.046530
756.6496,0.046067
758.5132,0.045896
760.3769,0.045706
762.2406,0.045324
764.1043,0.044569
765.9679,0.044204
767.8316,0.044004
769.6953,0.043689
771.5589,0.043301
773.4226,0.042827
775.2863,0.042591
777.1499,0.042608
779.0136,0.042392
780.8773,0.042024
782.7409,0.041736
784.6046,0.041564
786.4683,0.041146
788.3320,0.040528
790.1956,0.040095
792.0593,0.039819
793.9230,0.039476
795.7866,0.039176
797.6503,0.039084
799.5140,0.039122
801.3776,0.038983
803.2413,0.038561
805.1050,0.038205
806.9686,0.038114
808.8323,0.038448
810.6960,0.038643
812.5596,0.038045
814.4233,0.037702
816.2870,0.037647
818.1507,0.037504
820.0143,0.037727
821.8780,0.037920
823.7417,0.038119
825.6053,0.038200
827.4690,0.037729
829.3327,0.037594
831.1963,0.037394
833.0600,0.036605
834.9237,0.035808
836.7873,0.035072
838.6510,0.034899
840.5147,0.034848
842.3784,0.034445
844.2420,0.034232
846.1057,0.034115
847.9694,0.033970
849.8330,0.034058
851.6967,0.034383
853.5604,0.034362
855.4240,0.033866
857.2877,0.033867
859.1514,0.033837
861.0150,0.033790
862.8787,0.033801
864.7424,0.033832
866.6060,0.033644
868.4697,0.033891
870.3334,0.034294
872.1971,0.034324
874.0607,0.034452
875.9244,0.034560
877.7881,0.034415
879.6517,0.034264
881.5154,0.034165
883.3791,0.034243
885.2427,0.034250
887.1064,0.034258
888.9701,0.033986
890.8337,0.034085
892.6974,0.034435
894.5611,0.034501
896.4247,0.034333
898.2884,0.034149
900.1521,0.033888
902.0158,0.033755
903.8794,0.033929
905.7431,0.034392
907.6068,0.034694
909.4704,0.034664
911.3341,0.034805
913.1978,0.035281
915.0614,0.035566
916.9251,0.035911
918.7888,0.036211
920.6524,0.036176
922.5161,0.036260
924.3798,0.036431
926.2435,0.036351
928.1071,0.036294
929.9708,0.036266
931.8345,0.036337
933.6981,0.036409
935.5618,0.036546
937.4255,0.036526
939.2891,0.036436
941.1528,0.036738
943.0165,0.036986
944.8801,0.036957
946.7438,0.037255
948.6075,0.037535
950.4711,0.037635
952.3348,0.038004
954.1985,0.038520
956.0622,0.038848
957.9258,0.039266
959.7895,0.040010
961.6532,0.040742
963.5168,0.041414
965.3805,0.041971
967.2442,0.042166
969.1078,0.042247
970.9715,0.042231
972.8352,0.042183
974.6988,0.042253
976.5625,0.042342
978.4262,0.042379
980.2899,0.042551
982.1535,0.042860
984.0172,0.043207
985.8809,0.043709
987.7445,0.044251
989.6082,0.044846
991.4719,0.045570
993.3355,0.046290
995.1992,0.046968
997.0629,0.047584
998.9265,0.048234
1000.7902,0.048931
1002.6539,0.049602
1004.5175,0.050354
1006.3812,0.051364
1008.2449,0.052473
1010.1086,0.053546
1011.9722,0.054697
1013.8359,0.055910
1015.6996,0.056977
1017.5632,0.058047
1019.4269,0.059060
1021.2906,0.059907
1023.1542,0.060541
1025.0179,0.061126
1026.8816,0.061837
1028.7452,0.062601
1030.6089,0.063178
1032.4726,0.063600
1034.3362,0.063971
1036.1999,0.064276
1038.0636,0.064586
1039.9273,0.064814
1041.7909,0.064966
1043.6546,0.065115
1045.5183,0.065269
1047.3819,0.065382
1049.2456,0.065443
1051.1093,0.065402
1052.9729,0.065346
1054.8366,0.065329
1056.7003,0.065286
1058.5639,0.065171
1060.4276,0.065119
1062.2913,0.065078
1064.1550,0.064906
1066.0186,0.064751
1067.8823,0.064662
1069.7460,0.064370
1071.6096,0.064001
1073.4733,0.063375
1075.3370,0.062708
1077.2006,0.062098
1079.0643,0.061207
1080.9280,0.059988
1082.7916,0.058651
1084.6553,0.057350
1086.5190,0.056133
1088.3826,0.055012
1090.2463,0.053999
1092.1100,0.052899
1093.9737,0.051911
1095.8373,0.051123
1097.7010,0.050374
1099.5647,0.049596
1101.4283,0.049050
1103.2920,0.048583
1105.1557,0.048114
1107.0193,0.047747
1108.8830,0.047337
1110.7467,0.046988
1112.6103,0.046748
1114.4740,0.046485
1116.3377,0.046214
1118.2014,0.045892
1120.0650,0.045497
1121.9287,0.045019
1123.7924,0.044587
1125.6560,0.044214
1127.5197,0.043904
1129.3834,0.043489
1131.2470,0.042968
1133.1107,0.042452
1134.9744,0.041976
1136.8380,0.041539
1138.7017,0.041183
1140.5654,0.041010
1142.4290,0.040848
1144.2927,0.040714
1146.1564,0.040684
1148.0201,0.040697
1149.8837,0.040817
1151.7474,0.040914
1153.6111,0.040951
1155.4747,0.041027
1157.3384,0.041037
1159.2021,0.040902
1161.0657,0.040713
1162.9294,0.040390
1164.7931,0.039944
1166.6567,0.039574
1168.5204,0.039204
1170.3841,0.038683
1172.2477,0.038018
1174.1114,0.037441
1175.9751,0.036780
1177.8388,0.036032
1179.7024,0.035564
1181.5661,0.035310
1183.4298,0.035275
1185.2934,0.035454
1187.1571,0.035647
1189.0208,0.035838
1190.8844,0.036242
1192.7481,0.036704
1194.6118,0.037238
1196.4754,0.037782
1198.3391,0.038329
1200.2028,0.038995
1202.0665,0.039773
1203.9301,0.040420
1205.7938,0.041020
1207.6575,0.041659
1209.5211,0.042165
1211.3848,0.042543
1213.2485,0.043163
1215.1121,0.043917
1216.9758,0.044609
1218.8395,0.045092
1220.7031,0.045637
1222.5668,0.046392
1224.4305,0.046997
1226.2941,0.047319
1228.1578,0.047593
1230.0215,0.047793
1231.8852,0.047876
1233.7488,0.047876
1235.6125,0.047805
1237.4762,0.047636
1239.3398,0.047393
1241.2035,0.047023
1243.0672,0.046573
1244.9308,0.046124
1246.7945,0.045659
1248.6582,0.045055
1250.5218,0.044461
1252.3855,0.043997
1254.2492,0.043539
1256.1129,0.043130
1257.9765,0.042817
1259.8402,0.042482
1261.7039,0.042165
1263.5675,0.041837
1265.4312,0.041560
1267.2949,0.041402
1269.1585,0.041220
1271.0222,0.041131
1272.8859,0.041113
1274.7495,0.041068
1276.6132,0.041020
1278.4769,0.041000
1280.3405,0.041049
1282.2042,0.041052
1284.0679,0.041011
1285.9316,0.040995
1287.7952,0.041089
1289.6589,0.041160
1291.5226,0.041168
1293.3862,0.041279
1295.2499,0.041598
1297.1136,0.041802
1298.9772,0.041893
1300.8409,0.042099
1302.7046,0.042401
1304.5682,0.042628
1306.4319,0.042786
1308.2956,0.042896
1310.1592,0.042906
1312.0229,0.042942
1313.8866,0.042955
1315.7503,0.042872
1317.6139,0.042872
1319.4776,0.042830
1321.3413,0.042551
1323.2049,0.042303
1325.0686,0.042286
1326.9323,0.042340
1328.7959,0.042389
1330.6596,0.042496
1332.5233,0.042571
1334.3869,0.042716
1336.2506,0.043085
1338.1143,0.043557
1339.9780,0.043808
1341.8416,0.043498
1343.7053,0.043439
1345.5690,0.043448
1347.4326,0.043481
1349.2963,0.043572
1351.1600,0.043634
1353.0236,0.043684
1354.8873,0.043762
1356.7510,0.043826
1358.6146,0.044078
1360.4783,0.044860
1362.3420,0.046059
1364.2056,0.046494
1366.0693,0.046788
1367.9330,0.047318
1369.7967,0.047429
1371.6603,0.047723
1373.5240,0.048726
1375.3877,0.049123
1377.2513,0.049303
1379.1150,0.049516
1380.9787,0.049649
1382.8423,0.049681
1384.7060,0.049993
1386.5697,0.050662
1388.4333,0.050312
1390.2970,0.049563
1392.1607,0.049455
1394.0244,0.050116
1395.8880,0.049983
1397.7517,0.049804
1399.6154,0.049060
1401.4790,0.047964
1403.3427,0.047653
1405.2064,0.047196
1407.0700,0.046449
1408.9337,0.045771
1410.7974,0.045183
1412.6610,0.044529
1414.5247,0.044185
1416.3884,0.044354
1418.2520,0.045313
1420.1157,0.044801
1421.9794,0.044165
1423.8431,0.044128
1425.7067,0.043853
1427.5704,0.044176
1429.4341,0.045029
1431.2977,0.045455
1433.1614,0.045527
1435.0251,0.047238
1436.8887,0.048836
1438.7524,0.048355
1440.6161,0.048222
1442.4797,0.048282
1444.3434,0.048292
1446.2071,0.048444
1448.0707,0.048542
1449.9344,0.047976
1451.7981,0.047365
1453.6618,0.046617
1455.5254,0.047966
1457.3891,0.048540
1459.2528,0.046320
1461.1164,0.044061
1462.9801,0.043849
1464.8438,0.043916
1466.7074,0.042846
1468.5711,0.041458
1470.4348,0.041358
1472.2984,0.041846
1474.1621,0.041407
1476.0258,0.040583
1477.8895,0.039615
1479.7531,0.039789
1481.6168,0.040304
1483.4805,0.040630
1485.3441,0.041556
1487.2078,0.043620
1489.0715,0.046530
1490.9351,0.048043
1492.7988,0.048394
1494.6625,0.050031
1496.5261,0.053282
1498.3898,0.055768
1500.2535,0.056176
1502.1171,0.056000
1503.9808,0.057519
1505.8445,0.062537
1507.7082,0.066259
1509.5718,0.065740
1511.4355,0.065776
1513.2992,0.066446
1515.1628,0.067508
1517.0265,0.067620
1518.8902,0.067516
1520.7538,0.068642
1522.6175,0.069046
1524.4812,0.068856
1526.3448,0.068692
1528.2085,0.068378
1530.0722,0.067677
1531.9359,0.068515
1533.7995,0.068457
1535.6632,0.067095
1537.5269,0.067242
1539.3905,0.068804
1541.2542,0.068519
1543.1179,0.066885
1544.9815,0.065011
1546.8452,0.062827
1548.7089,0.061322
1550.5725,0.059344
1552.4362,0.057812
1554.2999,0.055756
1556.1635,0.054903
1558.0272,0.055953
1559.8909,0.053271
1561.7546,0.049934
1563.6182,0.048346
1565.4819,0.046933
1567.3456,0.046309
1569.2092,0.045847
1571.0729,0.044368
1572.9366,0.043463
1574.8002,0.043830
1576.6639,0.043725
1578.5276,0.042684
1580.3912,0.042230
1582.2549,0.042362
1584.1186,0.042715
1585.9822,0.042870
1587.8459,0.043332
1589.7096,0.043930
1591.5733,0.044913
1593.4369,0.045960
1595.3006,0.047009
1597.1643,0.047854
1599.0279,0.049030
1600.8916,0.050297
1602.7553,0.051754
1604.6189,0.053317
1606.4826,0.055214
1608.3463,0.057039
1610.2099,0.058885
1612.0736,0.060115
1613.9373,0.062142
1615.8010,0.065110
1617.6646,0.067514
1619.5283,0.068275
1621.3920,0.069764
1623.2556,0.071863
1625.1193,0.073004
1626.9830,0.073836
1628.8466,0.074771
1630.7103,0.074953
1632.5740,0.075589
1634.4376,0.077500
1636.3013,0.077772
1638.1650,0.076410
1640.0286,0.074787
1641.8923,0.073478
1643.7560,0.073138
1645.6197,0.072969
1647.4833,0.071117
1649.3470,0.069512
1651.2107,0.069567
1653.0743,0.068611
1654.9380,0.065386
1656.8017,0.063030
1658.6653,0.061163
1660.5290,0.059662
1662.3927,0.057429
1664.2563,0.054711
1666.1200,0.052891
1667.9837,0.051660
1669.8474,0.049295
1671.7110,0.046766
1673.5747,0.045401
1675.4384,0.043184
1677.3020,0.041044
1679.1657,0.039129
1681.0294,0.038107
1682.8930,0.037130
1684.7567,0.033377
1686.6204,0.030703
1688.4840,0.028600
1690.3477,0.026506
1692.2114,0.024326
1694.0750,0.022767
1695.9387,0.019958
1697.8024,0.018637
1699.6661,0.016087
1701.5297,0.013169
1703.3934,0.011757
1705.2571,0.010331
1707.1207,0.008941
1708.9844,0.007568
1710.8481,0.006883
1712.7117,0.006759
1714.5754,0.006960
1716.4391,0.006725
1718.3027,0.004823
1720.1664,0.004211
1722.0301,0.003916
1723.8937,0.003496
1725.7574,0.003060
1727.6211,0.003038
1729.4848,0.003102
1731.3484,0.003701
1733.2121,0.003539
1735.0758,0.002363
1736.9394,0.002429
1738.8031,0.002021
1740.6668,0.001763
1742.5304,0.001549
1744.3941,0.001600
1746.2578,0.001535
1748.1214,0.001496
1749.9851,0.001058
1751.8488,0.000023
1753.7125,-0.000165
1755.5761,-0.000167
1757.4398,-0.000228
1759.3035,-0.000099
1761.1671,-0.000280
1763.0308,-0.000541
1764.8945,-0.000682
1766.7581,-0.000571
1768.6218,-0.000237
1770.4855,0.000171
1772.3491,-0.000397
1774.2128,-0.000650
1776.0765,-0.000853
1777.9401,-0.000588
1779.8038,-0.000531
1781.6675,-0.000667
1783.5312,-0.000877
1785.3948,-0.000694
1787.2585,-0.000474
1789.1222,-0.000186
1790.9858,-0.000349
1792.8495,-0.000623
1794.7132,-0.000688
1796.5768,-0.000729
1798.4405,-0.000450
1800.3042,-0.000124
1802.1678,-0.000085
1804.0315,-0.000370
1805.8952,-0.000424
1807.7589,-0.000259
1809.6225,-0.000232
1811.4862,-0.000273
1813.3499,-0.000545
1815.2135,-0.000553
1817.0772,-0.000295
1818.9409,-0.000111
1820.8045,0.000087
1822.6682,0.000555
1824.5319,0.000272
1826.3955,0.000105
1828.2592,0.000372
1830.1229,0.000399
1831.9865,0.000295
1833.8502,0.000078
1835.7139,0.000185
1837.5776,0.000300
1839.4412,0.000592
1841.3049,0.000745
1843.1686,0.000647
1845.0322,0.000497
1846.8959,0.000423
1848.7596,0.000031
1850.6232,-0.000408
1852.4869,-0.000280
1854.3506,0.000369
1856.2142,0.000598
1858.0779,0.000596
1859.9416,0.000813
1861.8052,0.000919
1863.6689,0.000591
1865.5326,0.001001
1867.3963,0.001075
1869.2599,0.000762
1871.1236,0.000418
1872.9873,0.000355
1874.8509,0.000540
1876.7146,0.000909
1878.5783,0.001264
1880.4419,0.001065
1882.3056,0.001390
1884.1693,0.001578
1886.0329,0.001419
1887.8966,0.001241
1889.7603,0.001631
1891.6240,0.001557
1893.4876,0.001224
1895.3513,0.001081
1897.2150,0.000995
1899.0786,0.000894
1900.9423,0.000943
1902.8060,0.000878
1904.6696,0.001302
1906.5333,0.001959
1908.3970,0.001677
1910.2606,0.001676
1912.1243,0.001195
1913.9880,0.000904
1915.8516,0.001537
1917.7153,0.001627
1919.5790,0.001296
1921.4427,0.001103
1923.3063,0.001779
1925.1700,0.002084
1927.0337,0.001006
1928.8973,0.000590
1930.7610,0.000900
1932.6247,0.001680
1934.4883,0.002053
1936.3520,0.001968
1938.2157,0.001852
1940.0793,0.001863
1941.9430,0.002401
1943.8067,0.002228
1945.6704,0.002409
1947.5340,0.003715
1949.3977,0.003688
1951.2614,0.002410
1953.1250,0.002089
1954.9887,0.002046
1956.8524,0.002276
1958.7160,0.003301
1960.5797,0.003148
1962.4434,0.002151
1964.3070,0.002158
1966.1707,0.003201
1968.0344,0.003395
1969.8980,0.002414
1971.7617,0.001950
1973.6254,0.002152
1975.4891,0.001922
1977.3527,0.003061
1979.2164,0.004841
1981.0801,0.004204
1982.9437,0.002984
1984.8074,0.003234
1986.6711,0.003634
1988.5347,0.003112
1990.3984,0.002825
1992.2621,0.002814
1994.1257,0.003110
1995.9894,0.003730
1997.8531,0.004135
1999.7167,0.003732
2001.5804,0.003567
2003.4441,0.004265
2005.3078,0.004043
2007.1714,0.004435
2009.0351,0.004964
2010.8988,0.004614
2012.7624,0.004983
2014.6261,0.003715
2016.4898,0.002497
2018.3534,0.002902
2020.2171,0.001776
2022.0808,0.001831
2023.9444,0.004693
2025.8081,0.005974
2027.6718,0.005152
2029.5355,0.004782
2031.3991,0.005382
2033.2628,0.005237
2035.1265,0.004651
2036.9901,0.005566
2038.8538,0.005735
2040.7175,0.006763
2042.5811,0.007458
2044.4448,0.007572
2046.3085,0.007558
2048.1721,0.006687
2050.0358,0.007578
2051.8995,0.008146
2053.7631,0.007626
2055.6268,0.008384
2057.4905,0.008560
2059.3542,0.006753
2061.2178,0.005938
2063.0815,0.006576
2064.9452,0.007544
2066.8088,0.006867
2068.6725,0.005483
2070.5362,0.006012
2072.3998,0.006190
2074.2635,0.005615
2076.1272,0.005416
2077.9908,0.005015
2079.8545,0.004756
2081.7182,0.005096
2083.5819,0.004931
2085.4455,0.004659
2087.3092,0.003796
2089.1729,0.003325
2091.0365,0.003292
2092.9002,0.003212
2094.7639,0.003047
2096.6275,0.002945
2098.4912,0.002616
2100.3549,0.002832
2102.2185,0.002858
2104.0822,0.002926
2105.9459,0.002919
2107.8095,0.002780
2109.6732,0.002661
2111.5369,0.002580
2113.4006,0.003041
2115.2642,0.003549
2117.1279,0.002634
2118.9916,0.001771
2120.8552,0.002233
2122.7189,0.002681
2124.5826,0.002642
2126.4462,0.003222
2128.3099,0.003937
2130.1736,0.003694
2132.0372,0.002881
2133.9009,0.002629
2135.7646,0.003069
2137.6282,0.003099
2139.4919,0.003090
2141.3556,0.004072
2143.2193,0.004276
2145.0829,0.003988
2146.9466,0.003688
2148.8103,0.003078
2150.6739,0.002365
2152.5376,0.002593
2154.4013,0.004093
2156.2649,0.004306
2158.1286,0.003770
2159.9923,0.002874
2161.8559,0.002944
2163.7196,0.004902
2165.5833,0.004673
2167.4470,0.002694
2169.3106,0.002781
2171.1743,0.004104
2173.0380,0.003838
2174.9016,0.004279
2176.7653,0.004590
2178.6290,0.004094
2180.4926,0.003731
2182.3563,0.004267
2184.2200,0.003776
2186.0836,0.003467
2187.9473,0.003254
2189.8110,0.003287
2191.6746,0.004563
2193.5383,0.004141
2195.4020,0.003757
2197.2657,0.004849
2199.1293,0.004593
2200.9930,0.003847
2202.8567,0.003989
2204.7203,0.003863
2206.5840,0.003549
2208.4477,0.002706
2210.3113,0.002314
2212.1750,0.003542
2214.0387,0.004295
2215.9023,0.003930
2217.7660,0.002691
2219.6297,0.002345
2221.4934,0.003301
2223.3570,0.003852
2225.2207,0.004284
2227.0844,0.004895
2228.9480,0.004988
2230.8117,0.004241
2232.6754,0.003765
2234.5390,0.004049
2236.4027,0.004515
2238.2664,0.004217
2240.1300,0.003559
2241.9937,0.003720
2243.8574,0.003736
2245.7210,0.003079
2247.5847,0.003059
2249.4484,0.003138
2251.3121,0.003049
2253.1757,0.003279
2255.0394,0.004036
2256.9031,0.004871
2258.7667,0.004514
2260.6304,0.003054
2262.4941,0.002878
2264.3577,0.004066
2266.2214,0.004275
2268.0851,0.003796
2269.9487,0.003780
2271.8124,0.003677
2273.6761,0.003830
2275.5397,0.004201
2277.4034,0.004085
2279.2671,0.003544
2281.1308,0.003239
2282.9944,0.003395
2284.8581,0.003482
2286.7218,0.003204
2288.5854,0.003367
2290.4491,0.003906
2292.3128,0.003822
2294.1764,0.003271
2296.0401,0.003055
2297.9038,0.003313
2299.7674,0.003482
2301.6311,0.003529
2303.4948,0.003641
2305.3585,0.003627
2307.2221,0.003726
2309.0858,0.003679
2310.9495,0.003376
2312.8131,0.003440
2314.6768,0.003627
2316.5405,0.003494
2318.4041,0.003616
2320.2678,0.004052
2322.1315,0.004195
2323.9951,0.003741
2325.8588,0.003673
2327.7225,0.003862
2329.5861,0.003498
2331.4498,0.003384
2333.3135,0.003674
2335.1772,0.003425
2337.0408,0.002849
2338.9045,0.002922
2340.7682,0.003299
2342.6318,0.003413
2344.4955,0.003285
2346.3592,0.003276
2348.2228,0.003466
2350.0865,0.003681
2351.9502,0.003437
2353.8138,0.003270
2355.6775,0.003738
2357.5412,0.003892
2359.4049,0.004034
2361.2685,0.004286
2363.1322,0.003949
2364.9959,0.003786
2366.8595,0.004145
2368.7232,0.004165
2370.5869,0.004150
2372.4505,0.004232
2374.3142,0.004205
2376.1779,0.004016
2378.0415,0.003786
2379.9052,0.003600
2381.7689,0.003590
2383.6325,0.003573
2385.4962,0.003626
2387.3599,0.003771
2389.2236,0.003676
2391.0872,0.003481
2392.9509,0.003751
2394.8146,0.003824
2396.6782,0.003678
2398.5419,0.003810
2400.4056,0.003972
2402.2692,0.004097
2404.1329,0.004097
2405.9966,0.004136
2407.8602,0.004055
2409.7239,0.003830
2411.5876,0.004242
2413.4512,0.004455
2415.3149,0.004034
2417.1786,0.003961
2419.0423,0.004349
2420.9059,0.004417
2422.7696,0.004272
2424.6333,0.004321
2426.4969,0.004371
2428.3606,0.004212
2430.2243,0.004267
2432.0879,0.004657
2433.9516,0.004682
2435.8153,0.004265
2437.6789,0.004447
2439.5426,0.004833
2441.4063,0.004772
2443.2700,0.004661
2445.1336,0.004795
2446.9973,0.005042
2448.8610,0.005104
2450.7246,0.004837
2452.5883,0.004545
2454.4520,0.004724
2456.3156,0.005109
2458.1793,0.005169
2460.0430,0.005073
2461.9066,0.004996
2463.7703,0.005027
2465.6340,0.005260
2467.4976,0.005001
2469.3613,0.004485
2471.2250,0.004546
2473.0887,0.004868
2474.9523,0.005152
2476.8160,0.005311
2478.6797,0.005202
2480.5433,0.005012
2482.4070,0.005040
2484.2707,0.005311
2486.1343,0.005502
2487.9980,0.005481
2489.8617,0.005106
2491.7253,0.004963
2493.5890,0.005455
2495.4527,0.005784
2497.3164,0.005734
2499.1800,0.005439
2501.0437,0.005352
2502.9074,0.005463
2504.7710,0.005401
2506.6347,0.005663
2508.4984,0.006000
2510.3620,0.006092
2512.2257,0.005925
2514.0894,0.005669
2515.9530,0.005718
2517.8167,0.005856
2519.6804,0.005755
2521.5440,0.005406
2523.4077,0.005216
2525.2714,0.005420
2527.1351,0.005629
2528.9987,0.005888
2530.8624,0.006065
2532.7261,0.005786
2534.5897,0.005886
2536.4534,0.006156
2538.3171,0.006146
2540.1807,0.005739
2542.0444,0.005562
2543.9081,0.005926
2545.7717,0.006469
2547.6354,0.006541
2549.4991,0.006153
2551.3627,0.005857
2553.2264,0.006258
2555.0901,0.006159
2556.9538,0.005863
2558.8174,0.006230
2560.6811,0.006062
2562.5448,0.005680
2564.4084,0.006017
2566.2721,0.006404
2568.1358,0.006786
2569.9994,0.006996
2571.8631,0.006586
2573.7268,0.006198
2575.5904,0.006372
2577.4541,0.006499
2579.3178,0.006569
2581.1815,0.007005
2583.0451,0.007215
2584.9088,0.006826
2586.7725,0.006882
2588.6361,0.007199
2590.4998,0.007162
2592.3635,0.007086
2594.2271,0.007046
2596.0908,0.007154
2597.9545,0.007185
2599.8181,0.007376
2601.6818,0.007437
2603.5455,0.007278
2605.4091,0.007115
2607.2728,0.006989
2609.1365,0.006953
2611.0002,0.007090
2612.8638,0.007282
2614.7275,0.007576
2616.5912,0.007636
2618.4548,0.007293
2620.3185,0.007426
2622.1822,0.007637
