Wavenumber,Intensity
650.4205,0.145076
652.2841,0.145299
654.1478,0.143525
656.0115,0.140475
657.8751,0.142071
659.7388,0.144082
661.6025,0.141876
663.4661,0.141752
665.3298,0.141265
667.1935,0.140372
669.0571,0.141644
670.9208,0.139860
672.7845,0.138348
674.6481,0.138421
676.5118,0.137628
678.3755,0.135922
680.2392,0.134622
682.1028,0.135114
683.9665,0.134171
685.8302,0.133212
687.6938,0.132131
689.5575,0.130390
691.4212,0.129231
693.2848,0.130032
695.1485,0.130624
697.0122,0.130112
698.8758,0.128809
700.7395,0.127618
702.6032,0.125524
704.4669,0.123179
706.3305,0.121788
708.1942,0.121397
710.0579,0.120998
711.9215,0.120002
713.7852,0.118680
715.6489,0.117496
717.5125,0.116122
719.3762,0.115660
721.2399,0.115115
723.1035,0.113429
724.9672,0.112562
726.8309,0.111930
728.6945,0.110218
730.5582,0.109100
732.4219,0.108967
734.2856,0.108410
736.1492,0.107470
738.0129,0.107106
739.8766,0.107189
741.7402,0.107361
743.6039,0.106814
745.4676,0.105844
747.3312,0.104958
749.1949,0.104422
751.0586,0.103822
752.9222,0.102752
754.7859,0.101557
756.6496,0.101217
758.5132,0.100475
760.3769,0.099750
762.2406,0.099483
764.1043,0.099408
765.9679,0.098719
767.8316,0.097646
769.6953,0.096305
771.5589,0.095264
773.4226,0.095005
775.2863,0.094598
777.1499,0.093851
779.0136,0.093001
780.8773,0.091759
782.7409,0.090714
784.6046,0.089988
786.4683,0.089543
788.3320,0.088970
790.1956,0.088434
792.0593,0.087575
793.9230,0.086675
795.7866,0.086245
797.6503,0.085600
799.5140,0.084709
801.3776,0.084157
803.2413,0.084008
805.1050,0.084379
806.9686,0.084276
808.8323,0.083720
810.6960,0.083233
812.5596,0.083496
814.4233,0.083516
816.2870,0.082674
818.1507,0.081947
820.0143,0.081553
821.8780,0.080919
823.7417,0.080029
825.6053,0.079177
827.4690,0.078558
829.3327,0.077953
831.1963,0.077098
833.0600,0.076303
834.9237,0.075780
836.7873,0.075263
838.6510,0.074872
840.5147,0.074528
842.3784,0.074270
844.2420,0.073919
846.1057,0.073541
847.9694,0.073282
849.8330,0.073209
851.6967,0.073260
853.5604,0.073284
855.4240,0.073512
857.2877,0.073584
859.1514,0.073299
861.0150,0.073526
862.8787,0.074036
864.7424,0.074344
866.6060,0.074602
868.4697,0.074852
870.3334,0.075068
872.1971,0.075098
874.0607,0.075055
875.9244,0.074947
877.7881,0.074715
879.6517,0.074375
881.5154,0.073664
883.3791,0.073007
885.2427,0.072724
887.1064,0.072592
888.9701,0.072489
890.8337,0.072520
892.6974,0.072594
894.5611,0.072621
896.4247,0.072715
898.2884,0.072640
900.1521,0.072261
902.0158,0.072107
903.8794,0.072153
905.7431,0.072245
907.6068,0.072427
909.4704,0.072870
911.3341,0.073490
913.1978,0.074184
915.0614,0.074847
916.9251,0.075498
918.7888,0.076061
920.6524,0.076537
922.5161,0.076970
924.3798,0.077354
926.2435,0.077555
928.1071,0.077681
929.9708,0.077812
931.8345,0.078107
933.6981,0.078530
935.5618,0.078785
937.4255,0.078948
939.2891,0.079297
941.1528,0.079897
943.0165,0.080459
944.8801,0.080760
946.7438,0.080806
948.6075,0.080693
950.4711,0.080577
952.3348,0.080258
954.1985,0.080150
956.0622,0.080643
957.9258,0.081775
959.7895,0.083117
961.6532,0.084748
963.5168,0.086539
965.3805,0.088075
967.2442,0.089126
969.1078,0.089592
970.9715,0.089479
972.8352,0.089143
974.6988,0.089043
976.5625,0.089244
978.4262,0.089717
980.2899,0.090608
982.1535,0.091656
984.0172,0.092507
985.8809,0.093293
987.7445,0.094343
989.6082,0.095415
991.4719,0.096568
993.3355,0.098052
995.1992,0.099669
997.0629,0.101322
998.9265,0.102807
1000.7902,0.104081
1002.6539,0.105469
1004.5175,0.107220
1006.3812,0.109374
1008.2449,0.111915
1010.1086,0.114677
1011.9722,0.117748
1013.8359,0.121048
1015.6996,0.124152
1017.5632,0.127017
1019.4269,0.129582
1021.2906,0.131624
1023.1542,0.132972
1025.0179,0.134165
1026.8816,0.135505
1028.7452,0.136820
1030.6089,0.137889
1032.4726,0.138620
1034.3362,0.139060
1036.1999,0.139120
1038.0636,0.138941
1039.9273,0.138657
1041.7909,0.138156
1043.6546,0.137529
1045.5183,0.136919
1047.3819,0.136386
1049.2456,0.136153
1051.1093,0.136192
1052.9729,0.136288
1054.8366,0.136401
1056.7003,0.136556
1058.5639,0.136692
1060.4276,0.136910
1062.2913,0.137143
1064.1550,0.137410
1066.0186,0.137720
1067.8823,0.137910
1069.7460,0.137843
1071.6096,0.137400
1073.4733,0.136582
1075.3370,0.135232
1077.2006,0.133298
1079.0643,0.131044
1080.9280,0.128288
1082.7916,0.125095
1084.6553,0.121871
1086.5190,0.118655
1088.3826,0.115793
1090.2463,0.113527
1092.1100,0.111541
1093.9737,0.109831
1095.8373,0.108339
1097.7010,0.106960
1099.5647,0.105765
1101.4283,0.104686
1103.2920,0.103709
1105.1557,0.103161
1107.0193,0.102841
1108.8830,0.102555
1110.7467,0.102150
1112.6103,0.101812
1114.4740,0.101571
1116.3377,0.101041
1118.2014,0.100433
1120.0650,0.099698
1121.9287,0.098797
1123.7924,0.097905
1125.6560,0.097012
1127.5197,0.096154
1129.3834,0.095231
1131.2470,0.094141
1133.1107,0.092904
1134.9744,0.091558
1136.8380,0.090205
1138.7017,0.088975
1140.5654,0.087979
1142.4290,0.087157
1144.2927,0.086542
1146.1564,0.086163
1148.0201,0.085971
1149.8837,0.085894
1151.7474,0.085913
1153.6111,0.085680
1155.4747,0.085211
1157.3384,0.084670
1159.2021,0.083993
1161.0657,0.083175
1162.9294,0.082162
1164.7931,0.080970
1166.6567,0.079497
1168.5204,0.077786
1170.3841,0.075846
1172.2477,0.073598
1174.1114,0.071224
1175.9751,0.069084
1177.8388,0.067193
1179.7024,0.065653
1181.5661,0.064685
1183.4298,0.064130
1185.2934,0.063883
1187.1571,0.064025
1189.0208,0.064402
1190.8844,0.064832
1192.7481,0.065338
1194.6118,0.065930
1196.4754,0.066746
1198.3391,0.067702
1200.2028,0.068742
1202.0665,0.069754
1203.9301,0.070685
1205.7938,0.071611
1207.6575,0.072372
1209.5211,0.072955
1211.3848,0.073503
1213.2485,0.074218
1215.1121,0.075116
1216.9758,0.076143
1218.8395,0.077332
1220.7031,0.078493
1222.5668,0.079692
1224.4305,0.081024
1226.2941,0.082275
1228.1578,0.083350
1230.0215,0.084268
1231.8852,0.084888
1233.7488,0.085439
1235.6125,0.085932
1237.4762,0.086164
1239.3398,0.086107
1241.2035,0.085897
1243.0672,0.085497
1244.9308,0.084905
1246.7945,0.084177
1248.6582,0.083403
1250.5218,0.082644
1252.3855,0.081823
1254.2492,0.081057
1256.1129,0.080382
1257.9765,0.079784
1259.8402,0.079257
1261.7039,0.078758
1263.5675,0.078352
1265.4312,0.077998
1267.2949,0.077624
1269.1585,0.077332
1271.0222,0.077022
1272.8859,0.076616
1274.7495,0.076347
1276.6132,0.076263
1278.4769,0.076235
1280.3405,0.076164
1282.2042,0.076043
1284.0679,0.075853
1285.9316,0.075794
1287.7952,0.075929
1289.6589,0.075960
1291.5226,0.075965
1293.3862,0.076182
1295.2499,0.076616
1297.1136,0.077065
1298.9772,0.077620
1300.8409,0.078364
1302.7046,0.079011
1304.5682,0.079472
1306.4319,0.079849
1308.2956,0.080304
1310.1592,0.080850
1312.0229,0.081455
1313.8866,0.081729
1315.7503,0.081686
1317.6139,0.081836
1319.4776,0.081835
1321.3413,0.081415
1323.2049,0.080931
1325.0686,0.080652
1326.9323,0.080497
1328.7959,0.080370
1330.6596,0.080260
1332.5233,0.080321
1334.3869,0.080409
1336.2506,0.080763
1338.1143,0.081637
1339.9780,0.082375
1341.8416,0.082093
1343.7053,0.081751
1345.5690,0.081719
1347.4326,0.081600
1349.2963,0.081373
1351.1600,0.081142
1353.0236,0.080983
1354.8873,0.080920
1356.7510,0.080796
1358.6146,0.081031
1360.4783,0.082256
1362.3420,0.084275
1364.2056,0.085265
1366.0693,0.086018
1367.9330,0.087609
1369.7967,0.088738
1371.6603,0.089802
1373.5240,0.092128
1375.3877,0.093846
1377.2513,0.094253
1379.1150,0.094814
1380.9787,0.095215
1382.8423,0.095196
1384.7060,0.095489
1386.5697,0.097061
1388.4333,0.097563
1390.2970,0.096549
1392.1607,0.096630
1394.0244,0.098239
1395.8880,0.099051
1397.7517,0.099245
1399.6154,0.099507
1401.4790,0.098319
1403.3427,0.097969
1405.2064,0.098063
1407.0700,0.097061
1408.9337,0.096101
1410.7974,0.095519
1412.6610,0.094426
1414.5247,0.093183
1416.3884,0.092776
1418.2520,0.094490
1420.1157,0.094493
1421.9794,0.092709
1423.8431,0.092577
1425.7067,0.092358
1427.5704,0.092622
1429.4341,0.094171
1431.2977,0.094935
1433.1614,0.095186
1435.0251,0.097822
1436.8887,0.101789
1438.7524,0.101303
1440.6161,0.100585
1442.4797,0.100784
1444.3434,0.100839
1446.2071,0.101412
1448.0707,0.102145
1449.9344,0.100897
1451.7981,0.098963
1453.6618,0.097486
1455.5254,0.098880
1457.3891,0.100523
1459.2528,0.096310
1461.1164,0.092332
1462.9801,0.091165
1464.8438,0.091148
1466.7074,0.088587
1468.5711,0.085517
1470.4348,0.084493
1472.2984,0.085293
1474.1621,0.083621
1476.0258,0.081421
1477.8895,0.079667
1479.7531,0.078940
1481.6168,0.078974
1483.4805,0.078612
1485.3441,0.079097
1487.2078,0.081873
1489.0715,0.086227
1490.9351,0.088489
1492.7988,0.088236
1494.6625,0.090864
1496.5261,0.096860
1498.3898,0.100856
1500.2535,0.101718
1502.1171,0.101666
1503.9808,0.104136
1505.8445,0.114864
1507.7082,0.124775
1509.5718,0.123720
1511.4355,0.123934
1513.2992,0.125833
1515.1628,0.128602
1517.0265,0.131160
1518.8902,0.131719
1520.7538,0.134870
1522.6175,0.136989
1524.4812,0.136820
1526.3448,0.138000
1528.2085,0.138201
1530.0722,0.137612
1531.9359,0.138923
1533.7995,0.140390
1535.6632,0.137989
1537.5269,0.137699
1539.3905,0.142236
1541.2542,0.143637
1543.1179,0.140766
1544.9815,0.138212
1546.8452,0.134846
1548.7089,0.132337
1550.5725,0.129447
1552.4362,0.126183
1554.2999,0.122991
1556.1635,0.120686
1558.0272,0.122975
1559.8909,0.120971
1561.7546,0.113946
1563.6182,0.110432
1565.4819,0.108029
1567.3456,0.106412
1569.2092,0.105861
1571.0729,0.103289
1572.9366,0.100657
1574.8002,0.101258
1576.6639,0.102240
1578.5276,0.100049
1580.3912,0.098928
1582.2549,0.099095
1584.1186,0.099389
1585.9822,0.099803
1587.8459,0.100663
1589.7096,0.101963
1591.5733,0.103514
1593.4369,0.105283
1595.3006,0.107236
1597.1643,0.109181
1599.0279,0.111283
1600.8916,0.113958
1602.7553,0.117143
1604.6189,0.120239
1606.4826,0.123748
1608.3463,0.128052
1610.2099,0.131669
1612.0736,0.134081
1613.9373,0.137162
1615.8010,0.143403
1617.6646,0.148185
1619.5283,0.148535
1621.3920,0.150640
1623.2556,0.154635
1625.1193,0.156145
1626.9830,0.157250
1628.8466,0.158402
1630.7103,0.157807
1632.5740,0.157626
1634.4376,0.159861
1636.3013,0.159888
1638.1650,0.156036
1640.0286,0.152692
1641.8923,0.149832
1643.7560,0.147581
1645.6197,0.146302
1647.4833,0.143244
1649.3470,0.139009
1651.2107,0.138113
1653.0743,0.137656
1654.9380,0.130671
1656.8017,0.125316
1658.6653,0.121236
1660.5290,0.117699
1662.3927,0.113821
1664.2563,0.108953
1666.1200,0.104938
1667.9837,0.101810
1669.8474,0.097793
1671.7110,0.093124
1673.5747,0.089750
1675.4384,0.086036
1677.3020,0.081181
1679.1657,0.077285
1681.0294,0.073825
1682.8930,0.071243
1684.7567,0.066546
1686.6204,0.061312
1688.4840,0.057252
1690.3477,0.053003
1692.2114,0.048941
1694.0750,0.045624
1695.9387,0.041682
1697.8024,0.037534
1699.6661,0.034479
1701.5297,0.030703
1703.3934,0.028463
1705.2571,0.026631
1707.1207,0.025014
1708.9844,0.023593
1710.8481,0.022149
1712.7117,0.021021
1714.5754,0.020469
1716.4391,0.020016
1718.3027,0.018801
1720.1664,0.017534
1722.0301,0.016991
1723.8937,0.016442
1725.7574,0.015873
1727.6211,0.015387
1729.4848,0.015076
1731.3484,0.014911
1733.2121,0.014931
1735.0758,0.014236
1736.9394,0.013874
1738.8031,0.013753
1740.6668,0.013793
1742.5304,0.013567
1744.3941,0.013108
1746.2578,0.012843
1748.1214,0.012482
1749.9851,0.011742
1751.8488,0.010618
1753.7125,0.009644
1755.5761,0.009144
1757.4398,0.008552
1759.3035,0.008117
1761.1671,0.007669
1763.0308,0.007272
1764.8945,0.007066
1766.7581,0.006998
1768.6218,0.006845
1770.4855,0.006865
1772.3491,0.006525
1774.2128,0.006212
1776.0765,0.006287
1777.9401,0.006390
1779.8038,0.006150
1781.6675,0.005898
1783.5312,0.006226
1785.3948,0.006192
1787.2585,0.005947
1789.1222,0.006103
1790.9858,0.006126
1792.8495,0.006025
1794.7132,0.006092
1796.5768,0.006050
1798.4405,0.006017
1800.3042,0.006079
1802.1678,0.006063
1804.0315,0.005950
1805.8952,0.005966
1807.7589,0.005895
1809.6225,0.005562
1811.4862,0.005432
1813.3499,0.005499
1815.2135,0.005620
1817.0772,0.005750
1818.9409,0.005945
1820.8045,0.005854
1822.6682,0.005864
1824.5319,0.005789
1826.3955,0.005705
1828.2592,0.005991
1830.1229,0.005949
1831.9865,0.005639
1833.8502,0.005382
1835.7139,0.005074
1837.5776,0.005169
1839.4412,0.005361
1841.3049,0.005549
1843.1686,0.005711
1845.0322,0.005875
1846.8959,0.005887
1848.7596,0.005464
1850.6232,0.005453
1852.4869,0.005934
1854.3506,0.005644
1856.2142,0.005399
1858.0779,0.005718
1859.9416,0.006049
1861.8052,0.006086
1863.6689,0.005931
1865.5326,0.005923
1867.3963,0.006251
1869.2599,0.006148
1871.1236,0.006007
1872.9873,0.005877
1874.8509,0.005798
1876.7146,0.005578
1878.5783,0.005702
1880.4419,0.005577
1882.3056,0.005319
1884.1693,0.005480
1886.0329,0.005967
1887.8966,0.006087
1889.7603,0.005954
1891.6240,0.005869
1893.4876,0.006034
1895.3513,0.006094
1897.2150,0.006089
1899.0786,0.005911
1900.9423,0.005807
1902.8060,0.005852
1904.6696,0.005785
1906.5333,0.005318
1908.3970,0.005271
1910.2606,0.005587
1912.1243,0.005990
1913.9880,0.005997
1915.8516,0.006135
1917.7153,0.005974
1919.5790,0.005738
1921.4427,0.005692
1923.3063,0.005943
1925.1700,0.005342
1927.0337,0.005018
1928.8973,0.005064
1930.7610,0.005031
1932.6247,0.005306
1934.4883,0.005110
1936.3520,0.004881
1938.2157,0.005372
1940.0793,0.005636
1941.9430,0.005781
1943.8067,0.005931
1945.6704,0.005941
1947.5340,0.005791
1949.3977,0.005499
1951.2614,0.004674
1953.1250,0.004617
1954.9887,0.005526
1956.8524,0.006284
1958.7160,0.006446
1960.5797,0.006920
1962.4434,0.006660
1964.3070,0.005431
1966.1707,0.004559
1968.0344,0.005842
1969.8980,0.006821
1971.7617,0.006863
1973.6254,0.006292
1975.4891,0.006452
1977.3527,0.007233
1979.2164,0.007667
1981.0801,0.007180
1982.9437,0.007630
1984.8074,0.007970
1986.6711,0.008349
1988.5347,0.008967
1990.3984,0.008466
1992.2621,0.007204
1994.1257,0.007094
1995.9894,0.008078
1997.8531,0.007893
1999.7167,0.006124
2001.5804,0.006370
2003.4441,0.006830
2005.3078,0.006908
2007.1714,0.007360
2009.0351,0.008283
2010.8988,0.008167
2012.7624,0.007909
2014.6261,0.009014
2016.4898,0.010324
2018.3534,0.009789
2020.2171,0.010227
2022.0808,0.009543
2023.9444,0.010553
2025.8081,0.012004
2027.6718,0.012833
2029.5355,0.013348
2031.3991,0.012909
2033.2628,0.013959
2035.1265,0.016436
2036.9901,0.017027
2038.8538,0.017741
2040.7175,0.018725
2042.5811,0.021014
2044.4448,0.022971
2046.3085,0.023394
2048.1721,0.023315
2050.0358,0.024037
2051.8995,0.025110
2053.7631,0.025461
2055.6268,0.026045
2057.4905,0.026396
2059.3542,0.025787
2061.2178,0.025746
2063.0815,0.025831
2064.9452,0.024857
2066.8088,0.023033
2068.6725,0.022074
2070.5362,0.021570
2072.3998,0.020493
2074.2635,0.019405
2076.1272,0.018990
2077.9908,0.017808
2079.8545,0.016545
2081.7182,0.015531
2083.5819,0.014834
2085.4455,0.013925
2087.3092,0.013361
2089.1729,0.012175
2091.0365,0.010642
2092.9002,0.010213
2094.7639,0.010327
2096.6275,0.010618
2098.4912,0.010374
2100.3549,0.009661
2102.2185,0.009321
2104.0822,0.009479
2105.9459,0.009977
2107.8095,0.009665
2109.6732,0.009414
2111.5369,0.009127
2113.4006,0.009260
2115.2642,0.009072
2117.1279,0.009132
2118.9916,0.009601
2120.8552,0.009086
2122.7189,0.008492
2124.5826,0.008353
2126.4462,0.008143
2128.3099,0.008515
2130.1736,0.008163
2132.0372,0.007110
2133.9009,0.006535
2135.7646,0.007749
2137.6282,0.008113
2139.4919,0.008362
2141.3556,0.009400
2143.2193,0.009300
2145.0829,0.008232
2146.9466,0.008223
2148.8103,0.006873
2150.6739,0.007474
2152.5376,0.008653
2154.4013,0.008956
2156.2649,0.009499
2158.1286,0.010019
2159.9923,0.009788
2161.8559,0.009962
2163.7196,0.010150
2165.5833,0.011255
2167.4470,0.010954
2169.3106,0.010466
2171.1743,0.010135
2173.0380,0.009485
2174.9016,0.009854
2176.7653,0.010894
2178.6290,0.010607
2180.4926,0.011290
2182.3563,0.011227
2184.2200,0.011308
2186.0836,0.010995
2187.9473,0.010113
2189.8110,0.009756
2191.6746,0.009516
2193.5383,0.010538
2195.4020,0.011288
2197.2657,0.009875
2199.1293,0.009851
2200.9930,0.010602
2202.8567,0.010720
2204.7203,0.010485
2206.5840,0.010168
2208.4477,0.009957
2210.3113,0.010487
2212.1750,0.010102
2214.0387,0.010184
2215.9023,0.010495
2217.7660,0.009672
2219.6297,0.008961
2221.4934,0.009971
2223.3570,0.010781
2225.2207,0.010333
2227.0844,0.009712
2228.9480,0.009693
2230.8117,0.010381
2232.6754,0.010423
2234.5390,0.009770
2236.4027,0.009277
2238.2664,0.009482
2240.1300,0.009579
2241.9937,0.010231
2243.8574,0.010589
2245.7210,0.009928
2247.5847,0.009700
2249.4484,0.010109
2251.3121,0.010879
2253.1757,0.010174
2255.0394,0.009358
2256.9031,0.009895
2258.7667,0.010053
2260.6304,0.009852
2262.4941,0.010134
2264.3577,0.010141
2266.2214,0.010307
2268.0851,0.010167
2269.9487,0.009965
2271.8124,0.010307
2273.6761,0.010718
2275.5397,0.010742
2277.4034,0.011075
2279.2671,0.011261
2281.1308,0.011276
2282.9944,0.011063
2284.8581,0.010993
2286.7218,0.011139
2288.5854,0.011112
2290.4491,0.010521
2292.3128,0.010286
2294.1764,0.010410
2296.0401,0.010492
2297.9038,0.010365
2299.7674,0.010273
2301.6311,0.010205
2303.4948,0.010255
2305.3585,0.010294
2307.2221,0.010393
2309.0858,0.010534
2310.9495,0.010354
2312.8131,0.010255
2314.6768,0.010459
2316.5405,0.010636
2318.4041,0.011203
2320.2678,0.011424
2322.1315,0.011467
2323.9951,0.011357
2325.8588,0.010920
2327.7225,0.010190
2329.5861,0.009954
2331.4498,0.010046
2333.3135,0.010105
2335.1772,0.010415
2337.0408,0.010746
2338.9045,0.010738
2340.7682,0.010747
2342.6318,0.011033
2344.4955,0.011089
2346.3592,0.010575
2348.2228,0.010059
2350.0865,0.009722
2351.9502,0.010150
2353.8138,0.010543
2355.6775,0.010735
2357.5412,0.010416
2359.4049,0.010202
2361.2685,0.010685
2363.1322,0.011289
2364.9959,0.011348
2366.8595,0.011494
2368.7232,0.011606
2370.5869,0.011419
2372.4505,0.011143
2374.3142,0.011258
2376.1779,0.011306
2378.0415,0.011056
2379.9052,0.010779
2381.7689,0.010700
2383.6325,0.010665
2385.4962,0.010658
2387.3599,0.010418
2389.2236,0.010595
2391.0872,0.010908
2392.9509,0.010614
2394.8146,0.010404
2396.6782,0.010483
2398.5419,0.010548
2400.4056,0.010878
2402.2692,0.011055
2404.1329,0.010842
2405.9966,0.010654
2407.8602,0.010938
2409.7239,0.011132
2411.5876,0.011125
2413.4512,0.011167
2415.3149,0.011234
2417.1786,0.011446
2419.0423,0.011367
2420.9059,0.011071
2422.7696,0.011381
2424.6333,0.011839
2426.4969,0.011924
2428.3606,0.011668
2430.2243,0.011632
2432.0879,0.011761
2433.9516,0.011730
2435.8153,0.011773
2437.6789,0.011986
2439.5426,0.012106
2441.4063,0.012096
2443.2700,0.012102
2445.1336,0.012077
2446.9973,0.011922
2448.8610,0.011983
2450.7246,0.012343
2452.5883,0.012686
2454.4520,0.012384
2456.3156,0.012301
2458.1793,0.012337
2460.0430,0.012307
2461.9066,0.012329
2463.7703,0.012558
2465.6340,0.012783
2467.4976,0.012782
2469.3613,0.012624
2471.2250,0.012533
2473.0887,0.012527
2474.9523,0.012603
2476.8160,0.012723
2478.6797,0.012795
2480.5433,0.012769
2482.4070,0.013092
2484.2707,0.013337
2486.1343,0.012983
2487.9980,0.012507
2489.8617,0.012653
2491.7253,0.013039
2493.5890,0.013426
2495.4527,0.013388
2497.3164,0.013175
2499.1800,0.013142
2501.0437,0.013337
2502.9074,0.013228
2504.7710,0.013019
2506.6347,0.013160
2508.4984,0.013584
2510.3620,0.013677
2512.2257,0.013760
2514.0894,0.014195
2515.9530,0.014274
2517.8167,0.014049
2519.6804,0.014055
2521.5440,0.013820
2523.4077,0.013595
2525.2714,0.013864
2527.1351,0.014171
2528.9987,0.014153
2530.8624,0.013936
2532.7261,0.014156
2534.5897,0.014476
2536.4534,0.014263
2538.3171,0.014053
2540.1807,0.014117
2542.0444,0.014188
2543.9081,0.014127
2545.7717,0.014242
2547.6354,0.014440
2549.4991,0.014573
2551.3627,0.014751
2553.2264,0.014852
2555.0901,0.015002
2556.9538,0.015344
2558.8174,0.015089
2560.6811,0.014950
2562.5448,0.015360
2564.4084,0.015430
2566.2721,0.014948
2568.1358,0.014815
2569.9994,0.015336
2571.8631,0.015543
2573.7268,0.015446
2575.5904,0.015392
2577.4541,0.015268
2579.3178,0.015760
2581.1815,0.016289
2583.0451,0.016421
2584.9088,0.016333
2586.7725,0.016603
2588.6361,0.016866
2590.4998,0.016590
2592.3635,0.016359
2594.2271,0.016743
2596.0908,0.016999
2597.9545,0.016920
2599.8181,0.017028
2601.6818,0.017291
2603.5455,0.017374
2605.4091,0.017361
2607.2728,0.017530
2609.1365,0.017811
2611.0002,0.017938
2612.8638,0.018161
2614.7275,0.018354
2616.5912,0.018343
2618.4548,0.018332
2620.3185,0.018418
2622.1822,0.018395
2624.0458,0.018544
2625.9095,0.018953
