Wavenumber,Intensity
650.4205,0.001610
652.2841,0.000881
654.1478,0.000176
656.0115,0.001163
657.8751,0.001513
659.7388,0.000426
661.6025,0.001279
663.4661,0.002096
665.3298,0.001592
667.1935,0.000393
669.0571,0.000716
670.9208,0.001907
672.7845,0.002561
674.6481,0.002684
676.5118,0.001852
678.3755,0.001363
680.2392,0.001313
682.1028,0.002015
683.9665,0.002246
685.8302,0.001826
687.6938,0.001856
689.5575,0.002372
691.4212,0.002784
693.2848,0.002861
695.1485,0.003131
697.0122,0.003115
698.8758,0.002574
700.7395,0.002341
702.6032,0.002343
704.4669,0.002236
706.3305,0.002191
708.1942,0.002653
710.0579,0.003192
711.9215,0.003082
713.7852,0.002898
715.6489,0.002940
717.5125,0.003188
719.3762,0.003373
721.2399,0.003385
723.1035,0.003307
724.9672,0.003046
726.8309,0.002993
728.6945,0.003177
730.5582,0.003295
732.4219,0.003397
734.2856,0.003419
736.1492,0.003506
738.0129,0.003514
739.8766,0.003537
741.7402,0.003602
743.6039,0.003760
745.4676,0.003953
747.3312,0.003950
749.1949,0.004086
751.0586,0.004246
752.9222,0.004090
754.7859,0.004008
756.6496,0.004148
758.5132,0.004110
760.3769,0.004082
762.2406,0.004310
764.1043,0.004198
765.9679,0.004061
767.8316,0.004211
769.6953,0.004326
771.5589,0.004389
773.4226,0.004475
775.2863,0.004489
777.1499,0.004393
779.0136,0.004447
780.8773,0.004699
782.7409,0.004748
784.6046,0.004695
786.4683,0.004538
788.3320,0.004385
790.1956,0.004448
792.0593,0.004567
793.9230,0.004610
795.7866,0.004535
797.6503,0.004383
799.5140,0.004236
801.3776,0.004302
803.2413,0.004470
805.1050,0.004431
806.9686,0.004246
808.8323,0.004369
810.6960,0.004583
812.5596,0.004521
814.4233,0.004339
816.2870,0.004281
818.1507,0.004328
820.0143,0.004431
821.8780,0.004459
823.7417,0.004534
825.6053,0.004624
827.4690,0.004552
829.3327,0.004474
831.1963,0.004545
833.0600,0.004554
834.9237,0.004464
836.7873,0.004370
838.6510,0.004252
840.5147,0.004202
842.3784,0.004299
844.2420,0.004240
846.1057,0.004023
847.9694,0.003979
849.8330,0.004015
851.6967,0.003958
853.5604,0.003919
855.4240,0.003950
857.2877,0.003952
859.1514,0.003996
861.0150,0.004023
862.8787,0.004078
864.7424,0.004137
866.6060,0.004123
868.4697,0.004194
870.3334,0.004261
872.1971,0.004126
874.0607,0.004077
875.9244,0.004146
877.7881,0.004120
879.6517,0.004066
881.5154,0.004177
883.3791,0.004260
885.2427,0.004217
887.1064,0.004128
888.9701,0.004114
890.8337,0.004106
892.6974,0.004087
894.5611,0.004098
896.4247,0.004129
898.2884,0.004146
900.1521,0.004113
902.0158,0.004119
903.8794,0.004121
905.7431,0.004112
907.6068,0.004094
909.4704,0.004104
911.3341,0.004124
913.1978,0.004181
915.0614,0.004199
916.9251,0.004139
918.7888,0.004090
920.6524,0.004096
922.5161,0.004079
924.3798,0.004018
926.2435,0.003955
928.1071,0.003851
929.9708,0.003751
931.8345,0.003694
933.6981,0.003682
935.5618,0.003711
937.4255,0.003673
939.2891,0.003621
941.1528,0.003572
943.0165,0.003542
944.8801,0.003554
946.7438,0.003601
948.6075,0.003639
950.4711,0.003639
952.3348,0.003650
954.1985,0.003602
956.0622,0.003540
957.9258,0.003546
959.7895,0.003588
961.6532,0.003601
963.5168,0.003601
965.3805,0.003587
967.2442,0.003576
969.1078,0.003603
970.9715,0.003572
972.8352,0.003581
974.6988,0.003643
976.5625,0.003692
978.4262,0.003731
980.2899,0.003759
982.1535,0.003742
984.0172,0.003784
985.8809,0.003907
987.7445,0.003999
989.6082,0.003986
991.4719,0.003984
993.3355,0.004090
995.1992,0.004194
997.0629,0.004238
998.9265,0.004307
1000.7902,0.004393
1002.6539,0.004463
1004.5175,0.004594
1006.3812,0.004704
1008.2449,0.004800
1010.1086,0.004911
1011.9722,0.004998
1013.8359,0.005068
1015.6996,0.005134
1017.5632,0.005207
1019.4269,0.005250
1021.2906,0.005243
1023.1542,0.005270
1025.0179,0.005359
1026.8816,0.005407
1028.7452,0.005417
1030.6089,0.005445
1032.4726,0.005472
1034.3362,0.005555
1036.1999,0.005659
1038.0636,0.005699
1039.9273,0.005772
1041.7909,0.005876
1043.6546,0.005938
1045.5183,0.006004
1047.3819,0.006062
1049.2456,0.006093
1051.1093,0.006117
1052.9729,0.006163
1054.8366,0.006226
1056.7003,0.006306
1058.5639,0.006385
1060.4276,0.006502
1062.2913,0.006684
1064.1550,0.006796
1066.0186,0.006820
1067.8823,0.006882
1069.7460,0.007010
1071.6096,0.007097
1073.4733,0.007158
1075.3370,0.007264
1077.2006,0.007289
1079.0643,0.007310
1080.9280,0.007368
1082.7916,0.007369
1084.6553,0.007321
1086.5190,0.007337
1088.3826,0.007306
1090.2463,0.007248
1092.1100,0.007237
1093.9737,0.007221
1095.8373,0.007222
1097.7010,0.007215
1099.5647,0.007182
1101.4283,0.007196
1103.2920,0.007236
1105.1557,0.007265
1107.0193,0.007276
1108.8830,0.007272
1110.7467,0.007301
1112.6103,0.007326
1114.4740,0.007291
1116.3377,0.007240
1118.2014,0.007280
1120.0650,0.007302
1121.9287,0.007266
1123.7924,0.007241
1125.6560,0.007195
1127.5197,0.007165
1129.3834,0.007178
1131.2470,0.007191
1133.1107,0.007158
1134.9744,0.007096
1136.8380,0.007056
1138.7017,0.007052
1140.5654,0.007051
1142.4290,0.007010
1144.2927,0.006986
1146.1564,0.006993
1148.0201,0.007018
1149.8837,0.007019
1151.7474,0.006999
1153.6111,0.006992
1155.4747,0.006985
1157.3384,0.006975
1159.2021,0.006963
1161.0657,0.006953
1162.9294,0.006934
1164.7931,0.006915
1166.6567,0.006904
1168.5204,0.006868
1170.3841,0.006852
1172.2477,0.006852
1174.1114,0.006805
1175.9751,0.006735
1177.8388,0.006705
1179.7024,0.006671
1181.5661,0.006670
1183.4298,0.006679
1185.2934,0.006667
1187.1571,0.006677
1189.0208,0.006708
1190.8844,0.006754
1192.7481,0.006793
1194.6118,0.006814
1196.4754,0.006837
1198.3391,0.006885
1200.2028,0.006921
1202.0665,0.006965
1203.9301,0.007014
1205.7938,0.007076
1207.6575,0.007132
1209.5211,0.007172
1211.3848,0.007187
1213.2485,0.007198
1215.1121,0.007248
1216.9758,0.007277
1218.8395,0.007267
1220.7031,0.007297
1222.5668,0.007325
1224.4305,0.007310
1226.2941,0.007256
1228.1578,0.007235
1230.0215,0.007234
1231.8852,0.007203
1233.7488,0.007196
1235.6125,0.007182
1237.4762,0.007159
1239.3398,0.007139
1241.2035,0.007111
1243.0672,0.007101
1244.9308,0.007087
1246.7945,0.007081
1248.6582,0.007047
1250.5218,0.006979
1252.3855,0.006919
1254.2492,0.006874
1256.1129,0.006831
1257.9765,0.006797
1259.8402,0.006740
1261.7039,0.006651
1263.5675,0.006559
1265.4312,0.006496
1267.2949,0.006451
1269.1585,0.006419
1271.0222,0.006398
1272.8859,0.006297
1274.7495,0.006258
1276.6132,0.006257
1278.4769,0.006178
1280.3405,0.006102
1282.2042,0.006109
1284.0679,0.006116
1285.9316,0.006113
1287.7952,0.006103
1289.6589,0.006071
1291.5226,0.006072
1293.3862,0.006079
1295.2499,0.006088
1297.1136,0.006084
1298.9772,0.006057
1300.8409,0.006046
1302.7046,0.006069
1304.5682,0.006082
1306.4319,0.006050
1308.2956,0.006059
1310.1592,0.006112
1312.0229,0.006118
1313.8866,0.006125
1315.7503,0.006168
1317.6139,0.006158
1319.4776,0.006074
1321.3413,0.006012
1323.2049,0.006032
1325.0686,0.006024
1326.9323,0.006017
1328.7959,0.005998
1330.6596,0.005946
1332.5233,0.005988
1334.3869,0.006068
1336.2506,0.006172
1338.1143,0.006216
1339.9780,0.006071
1341.8416,0.005987
1343.7053,0.006067
1345.5690,0.006083
1347.4326,0.006058
1349.2963,0.006007
1351.1600,0.006002
1353.0236,0.006053
1354.8873,0.006014
1356.7510,0.005945
1358.6146,0.006028
1360.4783,0.006164
1362.3420,0.006044
1364.2056,0.005827
1366.0693,0.005940
1367.9330,0.006096
1369.7967,0.006094
1371.6603,0.006257
1373.5240,0.006325
1375.3877,0.006097
1377.2513,0.006093
1379.1150,0.006216
1380.9787,0.006207
1382.8423,0.006311
1384.7060,0.006527
1386.5697,0.006513
1388.4333,0.006191
1390.2970,0.006238
1392.1607,0.006625
1394.0244,0.006704
1395.8880,0.006497
1397.7517,0.006518
1399.6154,0.006439
1401.4790,0.006390
1403.3427,0.006612
1405.2064,0.006496
1407.0700,0.006323
1408.9337,0.006392
1410.7974,0.006354
1412.6610,0.006215
1414.5247,0.006351
1416.3884,0.006664
1418.2520,0.006528
1420.1157,0.005911
1421.9794,0.005941
1423.8431,0.006064
1425.7067,0.005873
1427.5704,0.005995
1429.4341,0.005972
1431.2977,0.005687
1433.1614,0.005965
1435.0251,0.006366
1436.8887,0.006026
1438.7524,0.005615
1440.6161,0.005892
1442.4797,0.006010
1444.3434,0.006119
1446.2071,0.006295
1448.0707,0.006177
1449.9344,0.005972
1451.7981,0.006050
1453.6618,0.006442
1455.5254,0.006928
1457.3891,0.006338
1459.2528,0.005462
1461.1164,0.005851
1462.9801,0.006304
1464.8438,0.006136
1466.7074,0.005631
1468.5711,0.005903
1470.4348,0.006390
1472.2984,0.006342
1474.1621,0.005687
1476.0258,0.005581
1477.8895,0.005627
1479.7531,0.005714
1481.6168,0.005754
1483.4805,0.005748
1485.3441,0.006018
1487.2078,0.006345
1489.0715,0.006299
1490.9351,0.005889
1492.7988,0.005938
1494.6625,0.006560
1496.5261,0.006758
1498.3898,0.006374
1500.2535,0.006184
1502.1171,0.006482
1503.9808,0.007337
1505.8445,0.008070
1507.7082,0.007316
1509.5718,0.006896
1511.4355,0.007242
1513.2992,0.007540
1515.1628,0.007788
1517.0265,0.007936
1518.8902,0.007983
1520.7538,0.008299
1522.6175,0.008006
1524.4812,0.008094
1526.3448,0.008353
1528.2085,0.008191
1530.0722,0.008471
1531.9359,0.008772
1533.7995,0.008494
1535.6632,0.008253
1537.5269,0.009082
1539.3905,0.009670
1541.2542,0.009066
1543.1179,0.008949
1544.9815,0.008926
1546.8452,0.008833
1548.7089,0.009022
1550.5725,0.008976
1552.4362,0.008687
1554.2999,0.008817
1556.1635,0.009166
1558.0272,0.009769
1559.8909,0.008377
1561.7546,0.007774
1563.6182,0.008232
1565.4819,0.008315
1567.3456,0.008316
1569.2092,0.008280
1571.0729,0.007740
1572.9366,0.008000
1574.8002,0.008507
1576.6639,0.008106
1578.5276,0.007609
1580.3912,0.007827
1582.2549,0.007931
1584.1186,0.007900
1585.9822,0.007999
1587.8459,0.008023
1589.7096,0.008015
1591.5733,0.008081
1593.4369,0.008188
1595.3006,0.008192
1597.1643,0.008195
1599.0279,0.008318
1600.8916,0.008434
1602.7553,0.008467
1604.6189,0.008601
1606.4826,0.008749
1608.3463,0.008800
1610.2099,0.008791
1612.0736,0.009050
1613.9373,0.009415
1615.8010,0.009709
1617.6646,0.009400
1619.5283,0.009566
1621.3920,0.010230
1623.2556,0.010437
1625.1193,0.010248
1626.9830,0.010517
1628.8466,0.010612
1630.7103,0.010720
1632.5740,0.011259
1634.4376,0.011732
1636.3013,0.011540
1638.1650,0.011157
1640.0286,0.011301
1641.8923,0.011474
1643.7560,0.011807
1645.6197,0.011992
1647.4833,0.011565
1649.3470,0.011515
1651.2107,0.012329
1653.0743,0.012477
1654.9380,0.011010
1656.8017,0.011018
1658.6653,0.011363
1660.5290,0.011291
1662.3927,0.010807
1664.2563,0.010153
1666.1200,0.010174
1667.9837,0.010342
1669.8474,0.009854
1671.7110,0.009364
1673.5747,0.009302
1675.4384,0.008931
1677.3020,0.008199
1679.1657,0.008230
1681.0294,0.008497
1682.8930,0.008478
1684.7567,0.007451
1686.6204,0.006637
1688.4840,0.006888
1690.3477,0.006542
1692.2114,0.006369
1694.0750,0.006431
1695.9387,0.006238
1697.8024,0.005877
1699.6661,0.005871
1701.5297,0.004882
1703.3934,0.004910
1705.2571,0.005202
1707.1207,0.004622
1708.9844,0.004507
1710.8481,0.004646
1712.7117,0.004804
1714.5754,0.005090
1716.4391,0.004857
1718.3027,0.004144
1720.1664,0.003919
1722.0301,0.004350
1723.8937,0.004383
1725.7574,0.004146
1727.6211,0.004168
1729.4848,0.004296
1731.3484,0.004563
1733.2121,0.004591
1735.0758,0.003817
1736.9394,0.003732
1738.8031,0.004297
1740.6668,0.004054
1742.5304,0.003829
1744.3941,0.003875
1746.2578,0.004057
1748.1214,0.004268
1749.9851,0.003954
1751.8488,0.003502
1753.7125,0.003514
1755.5761,0.003763
1757.4398,0.003725
1759.3035,0.003684
1761.1671,0.003738
1763.0308,0.003431
1764.8945,0.003602
1766.7581,0.003958
1768.6218,0.004002
1770.4855,0.003929
1772.3491,0.003774
1774.2128,0.003287
1776.0765,0.003444
1777.9401,0.003617
1779.8038,0.003698
1781.6675,0.003717
1783.5312,0.003745
1785.3948,0.003653
1787.2585,0.003608
1789.1222,0.003870
1790.9858,0.003915
1792.8495,0.003480
1794.7132,0.003276
1796.5768,0.003588
1798.4405,0.003822
1800.3042,0.003720
1802.1678,0.003438
1804.0315,0.003396
1805.8952,0.003449
1807.7589,0.003475
1809.6225,0.003497
1811.4862,0.003381
1813.3499,0.003189
1815.2135,0.003241
1817.0772,0.003322
1818.9409,0.003353
1820.8045,0.003475
1822.6682,0.003513
1824.5319,0.003464
1826.3955,0.003465
1828.2592,0.003586
1830.1229,0.003502
1831.9865,0.003259
1833.8502,0.003370
1835.7139,0.003387
1837.5776,0.003284
1839.4412,0.003251
1841.3049,0.003474
1843.1686,0.003622
1845.0322,0.003421
1846.8959,0.003214
1848.7596,0.003265
1850.6232,0.003347
1852.4869,0.003479
1854.3506,0.003427
1856.2142,0.003476
1858.0779,0.003490
1859.9416,0.003247
1861.8052,0.003237
1863.6689,0.003434
1865.5326,0.003498
1867.3963,0.003581
1869.2599,0.003549
1871.1236,0.003208
1872.9873,0.003278
1874.8509,0.003449
1876.7146,0.003361
1878.5783,0.003325
1880.4419,0.003439
1882.3056,0.003444
1884.1693,0.003323
1886.0329,0.003323
1887.8966,0.003362
1889.7603,0.003369
1891.6240,0.003267
1893.4876,0.003266
1895.3513,0.003325
1897.2150,0.003302
1899.0786,0.003420
1900.9423,0.003353
1902.8060,0.003192
1904.6696,0.003202
1906.5333,0.003351
1908.3970,0.003480
1910.2606,0.003470
1912.1243,0.003251
1913.9880,0.003193
1915.8516,0.003339
1917.7153,0.003489
1919.5790,0.003340
1921.4427,0.003357
1923.3063,0.003146
1925.1700,0.002907
1927.0337,0.002919
1928.8973,0.002836
1930.7610,0.002754
1932.6247,0.002806
1934.4883,0.002788
1936.3520,0.002661
1938.2157,0.002810
1940.0793,0.002920
1941.9430,0.002665
1943.8067,0.002405
1945.6704,0.002583
1947.5340,0.003140
1949.3977,0.003146
1951.2614,0.002732
1953.1250,0.002366
1954.9887,0.002251
1956.8524,0.001821
1958.7160,0.001642
1960.5797,0.001892
1962.4434,0.001687
1964.3070,0.001485
1966.1707,0.001807
1968.0344,0.001643
1969.8980,0.001374
1971.7617,0.001823
1973.6254,0.002773
1975.4891,0.003023
1977.3527,0.003165
1979.2164,0.003577
1981.0801,0.003807
1982.9437,0.003761
1984.8074,0.003877
1986.6711,0.003821
1988.5347,0.003423
1990.3984,0.002572
1992.2621,0.002365
1994.1257,0.002462
1995.9894,0.002578
1997.8531,0.002457
1999.7167,0.002348
2001.5804,0.002149
2003.4441,0.001784
2005.3078,0.001596
2007.1714,0.001751
2009.0351,0.002301
2010.8988,0.002264
2012.7624,0.001738
2014.6261,0.002089
2016.4898,0.002264
2018.3534,0.002186
2020.2171,0.002257
2022.0808,0.002179
2023.9444,0.001708
2025.8081,0.001708
2027.6718,0.001825
2029.5355,0.001703
2031.3991,0.001766
2033.2628,0.002607
2035.1265,0.003473
2036.9901,0.003575
2038.8538,0.003073
2040.7175,0.002994
2042.5811,0.003363
2044.4448,0.003767
2046.3085,0.003808
2048.1721,0.003703
2050.0358,0.003826
2051.8995,0.004141
2053.7631,0.004075
2055.6268,0.003937
2057.4905,0.003889
2059.3542,0.003641
2061.2178,0.003319
2063.0815,0.003590
2064.9452,0.003968
2066.8088,0.004071
2068.6725,0.004091
2070.5362,0.004137
2072.3998,0.004141
2074.2635,0.003899
2076.1272,0.003709
2077.9908,0.003751
2079.8545,0.003832
2081.7182,0.003864
2083.5819,0.003753
2085.4455,0.003751
2087.3092,0.003624
2089.1729,0.003472
2091.0365,0.003521
2092.9002,0.003745
2094.7639,0.003997
2096.6275,0.003845
2098.4912,0.003619
2100.3549,0.003652
2102.2185,0.004022
2104.0822,0.004376
2105.9459,0.004285
2107.8095,0.003987
2109.6732,0.003949
2111.5369,0.003871
2113.4006,0.003653
2115.2642,0.003698
2117.1279,0.003500
2118.9916,0.003132
2120.8552,0.002985
2122.7189,0.003092
2124.5826,0.003035
2126.4462,0.002826
2128.3099,0.002534
2130.1736,0.002001
2132.0372,0.001717
2133.9009,0.001761
2135.7646,0.001765
2137.6282,0.001932
2139.4919,0.001862
2141.3556,0.001858
2143.2193,0.002080
2145.0829,0.002029
2146.9466,0.001640
2148.8103,0.001994
2150.6739,0.001860
2152.5376,0.000650
2154.4013,0.000031
2156.2649,0.000420
2158.1286,0.001412
2159.9923,0.002883
2161.8559,0.003560
2163.7196,0.003469
2165.5833,0.003096
2167.4470,0.003179
2169.3106,0.003417
2171.1743,0.003498
2173.0380,0.003434
2174.9016,0.003191
2176.7653,0.002916
2178.6290,0.003153
2180.4926,0.003019
2182.3563,0.003209
2184.2200,0.003892
2186.0836,0.004108
2187.9473,0.004022
2189.8110,0.003961
2191.6746,0.003828
2193.5383,0.003800
2195.4020,0.003787
2197.2657,0.003509
2199.1293,0.003172
2200.9930,0.003253
2202.8567,0.003464
2204.7203,0.003587
2206.5840,0.003613
2208.4477,0.003910
2210.3113,0.004215
2212.1750,0.004299
2214.0387,0.003784
2215.9023,0.003592
2217.7660,0.004163
2219.6297,0.004151
2221.4934,0.003862
2223.3570,0.004208
2225.2207,0.003984
2227.0844,0.003930
2228.9480,0.004077
2230.8117,0.004109
2232.6754,0.004411
2234.5390,0.004635
2236.4027,0.004500
2238.2664,0.004510
2240.1300,0.004459
2241.9937,0.004413
2243.8574,0.004399
2245.7210,0.004385
2247.5847,0.004402
2249.4484,0.004405
2251.3121,0.004472
2253.1757,0.004589
2255.0394,0.004668
2256.9031,0.004796
2258.7667,0.004782
2260.6304,0.004785
2262.4941,0.004534
2264.3577,0.004268
2266.2214,0.004391
2268.0851,0.004679
2269.9487,0.004902
2271.8124,0.005133
2273.6761,0.005129
2275.5397,0.004992
2277.4034,0.004863
2279.2671,0.004781
2281.1308,0.004887
2282.9944,0.005110
2284.8581,0.005240
2286.7218,0.005288
2288.5854,0.005121
2290.4491,0.004942
2292.3128,0.004972
2294.1764,0.005036
2296.0401,0.005072
2297.9038,0.005111
2299.7674,0.004970
2301.6311,0.004803
2303.4948,0.004811
2305.3585,0.004958
2307.2221,0.005025
2309.0858,0.005092
2310.9495,0.005248
2312.8131,0.005487
2314.6768,0.005540
2316.5405,0.005432
2318.4041,0.005616
2320.2678,0.005867
2322.1315,0.005842
2323.9951,0.005969
2325.8588,0.006056
2327.7225,0.005833
2329.5861,0.005373
2331.4498,0.005185
2333.3135,0.005313
2335.1772,0.005396
2337.0408,0.005472
2338.9045,0.005698
2340.7682,0.005684
2342.6318,0.005711
2344.4955,0.005430
2346.3592,0.004943
2348.2228,0.004870
2350.0865,0.005157
2351.9502,0.005107
2353.8138,0.004479
2355.6775,0.003996
2357.5412,0.004291
2359.4049,0.004919
2361.2685,0.005342
2363.1322,0.005829
2364.9959,0.006177
2366.8595,0.006047
2368.7232,0.005823
2370.5869,0.005831
2372.4505,0.005583
2374.3142,0.005207
2376.1779,0.005037
2378.0415,0.004734
2379.9052,0.004469
2381.7689,0.004200
2383.6325,0.003988
2385.4962,0.003983
2387.3599,0.004034
2389.2236,0.004035
2391.0872,0.004006
2392.9509,0.003914
2394.8146,0.003838
2396.6782,0.003928
2398.5419,0.004133
2400.4056,0.004154
2402.2692,0.003940
2404.1329,0.003770
2405.9966,0.003817
2407.8602,0.004013
2409.7239,0.004090
2411.5876,0.003933
2413.4512,0.003970
2415.3149,0.004172
2417.1786,0.004208
2419.0423,0.004049
2420.9059,0.003976
2422.7696,0.004052
2424.6333,0.004094
2426.4969,0.004075
2428.3606,0.004121
2430.2243,0.004163
2432.0879,0.004157
2433.9516,0.004156
2435.8153,0.004246
2437.6789,0.004322
2439.5426,0.004216
2441.4063,0.004060
2443.2700,0.004213
2445.1336,0.004383
2446.9973,0.004349
2448.8610,0.004323
2450.7246,0.004287
2452.5883,0.004220
2454.4520,0.004255
2456.3156,0.004299
2458.1793,0.004282
2460.0430,0.004199
2461.9066,0.004216
2463.7703,0.004171
2465.6340,0.004147
2467.4976,0.004269
2469.3613,0.004335
2471.2250,0.004307
2473.0887,0.004266
2474.9523,0.004211
2476.8160,0.004293
2478.6797,0.004350
2480.5433,0.004202
2482.4070,0.004128
2484.2707,0.004262
2486.1343,0.004289
2487.9980,0.004266
2489.8617,0.004247
2491.7253,0.004260
2493.5890,0.004372
2495.4527,0.004402
2497.3164,0.004273
2499.1800,0.004197
2501.0437,0.004190
2502.9074,0.004193
2504.7710,0.004207
2506.6347,0.004246
2508.4984,0.004273
2510.3620,0.004362
2512.2257,0.004363
2514.0894,0.004411
2515.9530,0.004470
2517.8167,0.004392
2519.6804,0.004336
2521.5440,0.004278
2523.4077,0.004308
2525.2714,0.004447
2527.1351,0.004402
2528.9987,0.004297
2530.8624,0.004293
2532.7261,0.004390
2534.5897,0.004388
2536.4534,0.004378
2538.3171,0.004414
2540.1807,0.004493
2542.0444,0.004441
2543.9081,0.004418
2545.7717,0.004419
2547.6354,0.004322
2549.4991,0.004376
2551.3627,0.004498
2553.2264,0.004447
2555.0901,0.004453
2556.9538,0.004497
2558.8174,0.004483
2560.6811,0.004457
2562.5448,0.004533
2564.4084,0.004604
2566.2721,0.004663
2568.1358,0.004687
2569.9994,0.004567
2571.8631,0.004506
2573.7268,0.004573
2575.5904,0.004633
2577.4541,0.004664
2579.3178,0.004609
2581.1815,0.004716
2583.0451,0.004790
2584.9088,0.004645
2586.7725,0.004554
2588.6361,0.004620
2590.4998,0.004664
2592.3635,0.004761
2594.2271,0.004805
2596.0908,0.004752
2597.9545,0.004647
2599.8181,0.004571
2601.6818,0.004615
2603.5455,0.004814
2605.4091,0.004912
2607.2728,0.004729
2609.1365,0.004561
2611.0002,0.004702
2612.8638,0.004790
2614.7275,0.004737
2616.5912,0.004687
2618.4548,0.004757
2620.3185,0.004903
2622.1822,0.004912
2624.0458,0.004890
2625.9095,0.004921
